Data run started at:  Tuesday, October 17, 2017	3:14:31 PM
magnet(A)	lockin1(V)	lockin2(V)	time (sec)
NaN	NaN	NaN	16.044000
0.068942	0.485526	0.020383	16.101000
0.069003	0.485035	0.020318	16.601000
0.069116	0.484093	0.020243	17.101000
0.069199	0.483863	0.020329	17.601000
0.069144	0.484106	0.020328	18.101000
0.069020	0.485381	0.020349	18.601000
0.069080	0.485295	0.020447	19.102000
0.069942	0.484686	0.020354	19.601000
0.085321	0.484514	0.020335	20.101000
0.110881	0.483936	0.020438	20.601000
0.135166	0.482923	0.020528	21.102000
0.156424	0.481930	0.020712	21.601000
0.180038	0.481362	0.020873	22.101000
0.201693	0.481877	0.021202	22.602000
0.219182	0.483404	0.021618	23.101000
0.236337	0.483692	0.022086	23.601000
0.259259	0.483379	0.022924	24.101000
0.276942	0.483923	0.024053	24.601000
0.294453	0.483827	0.025083	25.101000
0.314798	0.483165	0.026077	25.601000
0.337167	0.482009	0.027070	26.101000
0.359316	0.480331	0.028046	26.601000
0.382071	0.478273	0.029204	27.102000
0.402960	0.477163	0.030352	27.601000
0.426700	0.475974	0.031472	28.101000
0.445520	0.474794	0.032643	28.601000
0.463112	0.473727	0.033742	29.102000
0.484911	0.472405	0.034898	29.601000
0.511787	0.470802	0.036233	30.101000
0.535597	0.469245	0.037732	30.601000
0.554604	0.467742	0.039072	31.102000
0.573200	0.466717	0.040240	31.601000
0.605192	0.465791	0.041400	32.101000
0.625241	0.464651	0.042687	32.601000
0.644290	0.463431	0.043913	33.101000
0.662970	0.462059	0.045272	33.601000
0.687125	0.460665	0.046690	34.101000
0.706929	0.459285	0.048189	34.601000
0.719573	0.458001	0.049761	35.101000
0.747351	0.456501	0.051209	35.601000
0.770555	0.455035	0.052692	36.101000
0.783991	0.453680	0.054191	36.601000
0.810083	0.452689	0.055561	37.101000
0.838819	0.451688	0.056841	37.601000
0.859091	0.450850	0.058108	38.101000
0.870444	0.449953	0.059620	38.601000
0.895508	0.448964	0.061031	39.101000
0.918005	0.447796	0.062301	39.601000
0.938338	0.446745	0.063480	40.102000
0.961239	0.445547	0.064785	40.601000
0.984532	0.444283	0.066148	41.101000
1.015110	0.443155	0.067576	41.601000
1.033550	0.441984	0.069062	42.101000
1.048428	0.440725	0.070628	42.601000
1.070874	0.439519	0.072125	43.101000
1.088998	0.438213	0.073440	43.601000
1.107730	0.436846	0.074906	44.101000
1.129422	0.435251	0.076325	44.601000
1.153222	0.433615	0.077857	45.101000
1.177148	0.431965	0.079324	45.602000
1.195492	0.430675	0.080658	46.101000
1.212717	0.429375	0.081928	46.601000
1.235858	0.428048	0.083262	47.101000
1.255753	0.426974	0.084683	47.601000
1.279611	0.426128	0.086050	48.101000
1.298063	0.425418	0.087505	48.601000
1.316981	0.424386	0.088922	49.101000
1.338851	0.422954	0.090438	49.601000
1.361255	0.421503	0.091841	50.101000
1.382682	0.420310	0.093049	50.601000
1.400107	0.419358	0.094205	51.101000
1.418517	0.418427	0.095463	51.601000
1.440107	0.417454	0.096765	52.101000
1.461495	0.416498	0.098167	52.601000
1.482225	0.415498	0.099783	53.101000
1.501025	0.414547	0.101424	53.601000
1.522503	0.413813	0.102913	54.101000
1.542357	0.412770	0.104378	54.601000
1.562573	0.411460	0.105746	55.101000
1.582496	0.409915	0.107032	55.601000
1.602194	0.408572	0.108393	56.101000
1.622880	0.407714	0.109758	56.601000
1.642583	0.406671	0.111125	57.101000
1.662346	0.405692	0.112337	57.601000
1.682797	0.404834	0.113606	58.101000
1.703116	0.403968	0.114899	58.601000
1.722938	0.402847	0.116241	59.101000
1.743009	0.401809	0.117714	59.601000
1.764199	0.401084	0.119063	60.102000
1.785842	0.400581	0.120439	60.601000
1.805192	0.400017	0.121971	61.101000
1.824071	0.399001	0.123299	61.601000
1.844696	0.397799	0.124593	62.101000
1.864242	0.396798	0.125879	62.601000
1.884396	0.395681	0.127205	63.101000
1.906128	0.394492	0.128511	63.601000
1.925228	0.393829	0.129811	64.101000
1.945741	0.393282	0.131024	64.601000
1.966792	0.392591	0.132277	65.101000
1.988886	0.391597	0.133690	65.601000
2.008628	0.390448	0.135094	66.101000
2.030107	0.389467	0.136577	66.601000
2.050983	0.388381	0.138054	67.101000
2.071474	0.387395	0.139396	67.601000
2.091968	0.386311	0.140811	68.101000
2.112707	0.385399	0.142320	68.601000
2.134508	0.384327	0.143859	69.101000
2.156624	0.382911	0.145182	69.601000
2.178245	0.381811	0.146619	70.101000
2.199333	0.381211	0.147958	70.601000
2.220891	0.380843	0.149163	71.101000
2.241602	0.380523	0.150304	71.601000
2.261535	0.379881	0.151476	72.101000
2.282693	0.379075	0.152741	72.601000
2.303132	0.377953	0.154153	73.101000
2.323592	0.377163	0.155714	73.601000
2.344645	0.376446	0.157223	74.101000
2.365332	0.375567	0.158665	74.601000
2.385613	0.374380	0.160026	75.101000
2.406483	0.373108	0.161320	75.602000
2.426754	0.371884	0.162787	76.101000
2.447065	0.371043	0.164215	76.601000
2.467670	0.370462	0.165700	77.101000
2.487599	0.369757	0.167060	77.602000
2.507111	0.369160	0.168310	78.101000
2.525761	0.368729	0.169786	78.601000
2.545767	0.368167	0.171226	79.101000
2.565774	0.367967	0.172561	79.601000
2.588143	0.367453	0.173865	80.102000
2.609210	0.366733	0.175182	80.601000
2.628810	0.365786	0.176472	81.102000
2.648285	0.364792	0.177681	81.601000
2.670212	0.364056	0.178929	82.102000
2.689994	0.363289	0.180241	82.601000
2.710481	0.361941	0.181593	83.102000
2.731348	0.360889	0.182947	83.601000
2.751326	0.359577	0.184176	84.101000
2.771563	0.358093	0.185349	84.601000
2.792554	0.356844	0.186714	85.101000
2.812218	0.355841	0.188111	85.601000
2.833600	0.355148	0.189433	86.101000
2.855105	0.355012	0.190809	86.601000
2.875398	0.354996	0.192204	87.101000
2.894623	0.355053	0.193451	87.601000
2.915661	0.354644	0.194792	88.101000
2.937876	0.353588	0.196312	88.601000
2.957428	0.352677	0.197736	89.101000
2.980080	0.352250	0.199096	89.601000
3.003811	0.351274	0.200428	90.101000
3.025992	0.350144	0.201852	90.601000
3.048460	0.349143	0.203325	91.102000
3.069560	0.349033	0.204731	91.601000
3.091534	0.348870	0.206188	92.101000
3.111392	0.348121	0.207542	92.601000
3.133772	0.346939	0.208943	93.102000
3.153975	0.345620	0.210079	93.601000
3.175218	0.344803	0.211330	94.101000
3.195123	0.344214	0.212601	94.601000
3.215938	0.343989	0.213961	95.101000
3.235966	0.344257	0.215462	95.601000
3.255535	0.344795	0.216888	96.101000
3.275934	0.344681	0.218180	96.601000
3.295810	0.343973	0.219522	97.101000
3.317017	0.342788	0.220818	97.601000
3.337666	0.341559	0.222217	98.101000
3.358702	0.340264	0.223489	98.601000
3.380116	0.339328	0.224942	99.101000
3.400581	0.338885	0.226326	99.601000
3.421638	0.338422	0.227641	100.102000
3.442245	0.338399	0.229064	100.601000
3.462675	0.338868	0.230250	101.102000
3.482966	0.339503	0.231607	101.601000
3.503707	0.339788	0.233001	102.101000
3.523738	0.339226	0.234402	102.601000
3.543911	0.338272	0.235746	103.101000
3.565156	0.337038	0.237039	103.601000
3.585892	0.335133	0.238361	104.101000
3.607650	0.333084	0.239643	104.601000
3.628473	0.331134	0.241048	105.101000
3.648845	0.329678	0.242550	105.601000
3.668650	0.328599	0.243944	106.101000
3.688966	0.328397	0.245182	106.601000
3.710690	0.329353	0.246354	107.101000
3.731458	0.330971	0.247552	107.601000
3.752162	0.332626	0.248890	108.101000
3.774616	0.333995	0.250276	108.601000
3.795284	0.334711	0.251641	109.101000
3.816989	0.334497	0.253019	109.601000
3.838484	0.333452	0.254489	110.101000
3.859422	0.331670	0.255970	110.601000
3.879457	0.329535	0.257538	111.101000
3.899905	0.326949	0.259098	111.601000
3.919986	0.324400	0.260552	112.101000
3.940709	0.322640	0.261807	112.601000
3.962557	0.321964	0.263232	113.101000
3.983100	0.322274	0.264739	113.601000
4.003815	0.323403	0.266073	114.101000
4.023101	0.325199	0.267280	114.601000
4.043830	0.327227	0.268427	115.101000
4.064960	0.329444	0.269662	115.602000
4.085890	0.330964	0.271084	116.101000
4.107210	0.332183	0.272546	116.602000
4.129396	0.332755	0.274218	117.101000
4.150863	0.331987	0.275639	117.601000
4.171869	0.330338	0.277036	118.101000
4.192298	0.328308	0.278430	118.601000
4.213191	0.326096	0.279793	119.101000
4.233703	0.323403	0.281193	119.601000
4.253788	0.319946	0.282561	120.101000
4.275137	0.317132	0.284065	120.601000
4.296570	0.315092	0.285384	121.101000
4.319072	0.314114	0.286670	121.601000
4.340650	0.314406	0.287876	122.101000
4.362515	0.315843	0.289220	122.601000
4.384175	0.318411	0.290556	123.101000
4.405681	0.321378	0.291810	123.601000
4.426875	0.324449	0.293237	124.101000
4.448914	0.327804	0.294693	124.602000
4.471660	0.330665	0.296171	125.101000
4.493622	0.332575	0.297693	125.601000
4.514908	0.333280	0.299144	126.101000
4.534946	0.332797	0.300735	126.602000
4.555355	0.331139	0.302376	127.101000
4.576390	0.328428	0.303893	127.601000
4.597811	0.325145	0.305263	128.101000
4.620556	0.321576	0.306723	128.601000
4.640279	0.317602	0.308205	129.101000
4.661356	0.313346	0.309705	129.601000
4.681929	0.309206	0.311108	130.101000
4.702811	0.306103	0.312368	130.601000
4.723264	0.304188	0.313493	131.102000
4.743550	0.303599	0.314606	131.601000
4.763904	0.305080	0.315903	132.101000
4.785831	0.307736	0.317043	132.601000
4.807464	0.311543	0.318291	133.101000
4.828528	0.316302	0.319702	133.601000
4.849466	0.321318	0.321230	134.101000
4.871091	0.325741	0.322728	134.601000
4.892377	0.330373	0.323918	135.101000
4.913778	0.335192	0.325064	135.601000
4.934289	0.338690	0.326409	136.101000
4.954808	0.340572	0.327776	136.602000
4.975815	0.341497	0.329190	137.101000
4.997793	0.341673	0.330581	137.602000
5.019052	0.340120	0.331900	138.101000
5.039727	0.337298	0.333379	138.601000
5.060566	0.333470	0.334868	139.101000
5.081359	0.327946	0.336353	139.602000
5.103482	0.321727	0.337876	140.101000
5.123103	0.315422	0.339381	140.601000
5.143890	0.309454	0.340918	141.101000
5.164822	0.303947	0.342430	141.601000
5.185540	0.299400	0.343833	142.101000
5.206216	0.296231	0.345179	142.601000
5.227048	0.293601	0.346418	143.101000
5.247490	0.292989	0.347629	143.601000
5.269185	0.294587	0.348853	144.101000
5.287942	0.297735	0.350095	144.601000
5.309442	0.302049	0.351251	145.101000
5.328930	0.307315	0.352386	145.601000
5.349257	0.313804	0.353634	146.101000
5.370262	0.320629	0.354816	146.601000
5.393942	0.327360	0.355940	147.101000
5.417803	0.334087	0.357035	147.601000
5.437209	0.340821	0.358224	148.101000
5.456860	0.346679	0.359567	148.601000
5.479256	0.351927	0.361127	149.101000
5.498813	0.355995	0.362645	149.601000
5.520200	0.358911	0.364153	150.101000
5.540646	0.360426	0.365604	150.602000
5.560854	0.360610	0.367270	151.102000
5.580449	0.359549	0.368950	151.601000
5.600351	0.357350	0.370559	152.101000
5.619478	0.353829	0.372225	152.601000
5.640447	0.349224	0.373908	153.101000
5.663800	0.343872	0.375535	153.601000
5.686700	0.336949	0.377010	154.101000
5.704172	0.329801	0.378468	154.601000
5.724210	0.322396	0.379984	155.101000
5.746064	0.314550	0.381462	155.601000
5.765575	0.305967	0.382664	156.101000
5.785789	0.297906	0.383866	156.601000
5.804560	0.291435	0.385052	157.101000
5.822291	0.287015	0.386127	157.601000
5.843084	0.284283	0.387249	158.101000
5.864256	0.282853	0.388244	158.601000
5.883801	0.283302	0.389303	159.101000
5.901746	0.284941	0.390433	159.601000
5.923477	0.288675	0.391504	160.101000
5.945308	0.294247	0.392421	160.602000
5.963651	0.300590	0.393391	161.101000
5.986157	0.308456	0.394563	161.601000
6.007237	0.317213	0.395627	162.101000
6.028367	0.326520	0.396719	162.601000
6.044365	0.336421	0.397737	163.101000
6.065156	0.346128	0.398806	163.601000
6.089853	0.355653	0.400076	164.101000
6.106952	0.364911	0.401318	164.601000
6.124530	0.373690	0.402668	165.101000
6.145557	0.381396	0.403955	165.601000
6.166622	0.387854	0.405204	166.102000
6.186796	0.392917	0.406493	166.601000
6.207694	0.396011	0.407957	167.101000
6.226400	0.397566	0.409652	167.601000
6.244507	0.398329	0.411559	168.101000
6.264698	0.398503	0.413337	168.601000
6.283407	0.398787	0.414927	169.101000
6.300247	0.398098	0.416580	169.601000
6.319998	0.395104	0.418335	170.101000
6.341788	0.390858	0.420011	170.601000
6.362769	0.386442	0.421692	171.102000
6.379050	0.380885	0.423365	171.601000
6.397515	0.374780	0.424924	172.101000
6.416582	0.368457	0.426375	172.601000
6.437032	0.361574	0.427613	173.101000
6.462966	0.353567	0.429132	173.601000
6.480231	0.344861	0.430760	174.101000
6.498190	0.335046	0.432173	174.601000
6.516429	0.324389	0.433566	175.102000
6.535300	0.314220	0.434900	175.601000
6.556424	0.304782	0.436039	176.101000
6.576745	0.296078	0.437056	176.601000
6.595099	0.288347	0.438186	177.101000
6.614659	0.281133	0.439313	177.601000
6.635643	0.274672	0.440380	178.101000
6.655262	0.270740	0.441227	178.601000
6.677014	0.269151	0.442090	179.101000
6.697842	0.268997	0.443091	179.601000
6.719339	0.270691	0.443943	180.101000
6.738535	0.274832	0.444808	180.601000
6.760336	0.281097	0.445622	181.101000
6.781027	0.288567	0.446633	181.601000
6.801691	0.297157	0.447581	182.101000
6.822970	0.307885	0.448482	182.601000
6.843437	0.320817	0.449404	183.101000
6.865597	0.335057	0.450379	183.601000
6.885474	0.349084	0.451556	184.101000
6.907352	0.362776	0.452573	184.601000
6.928867	0.377025	0.453640	185.102000
6.949923	0.390197	0.455022	185.601000
6.970761	0.402682	0.456483	186.101000
6.991318	0.414796	0.457886	186.601000
7.012713	0.426468	0.459443	187.101000
7.032951	0.436500	0.460833	187.601000
7.055184	0.445153	0.462285	188.101000
7.076538	0.452499	0.463771	188.601000
7.096585	0.458960	0.465192	189.101000
7.117160	0.464390	0.466447	189.601000
7.137421	0.468363	0.467660	190.101000
7.158319	0.470463	0.469056	190.601000
7.177780	0.471442	0.470614	191.101000
7.196642	0.471833	0.472371	191.601000
7.216206	0.471929	0.474057	192.101000
7.236595	0.471594	0.475776	192.601000
7.257312	0.470529	0.477615	193.101000
7.276913	0.467702	0.479415	193.601000
7.296759	0.463153	0.481103	194.101000
7.317203	0.457463	0.482850	194.601000
7.337793	0.451139	0.484526	195.102000
7.357583	0.445001	0.486204	195.601000
7.377502	0.438540	0.487870	196.101000
7.397799	0.431666	0.489556	196.601000
7.419241	0.423460	0.491179	197.102000
7.440250	0.414371	0.492785	197.601000
7.460699	0.404507	0.494425	198.101000
7.480050	0.394425	0.496222	198.602000
7.500857	0.383759	0.498166	199.101000
7.521405	0.372570	0.499836	199.601000
7.541617	0.362138	0.501439	200.101000
7.562369	0.351750	0.502985	200.601000
7.582445	0.340570	0.504475	201.101000
7.602871	0.329200	0.505996	201.601000
7.625254	0.317397	0.507427	202.101000
7.646483	0.305146	0.508882	202.601000
7.666275	0.294049	0.510222	203.101000
7.686303	0.283535	0.511386	203.601000
7.707721	0.274406	0.512293	204.101000
7.729190	0.266597	0.513000	204.601000
7.748953	0.260607	0.513615	205.101000
7.768881	0.256798	0.514305	205.601000
7.789383	0.255247	0.515057	206.101000
7.810197	0.256354	0.515839	206.601000
7.830184	0.260250	0.516534	207.102000
7.851336	0.266333	0.517194	207.601000
7.871794	0.274330	0.517713	208.101000
7.891760	0.283876	0.518209	208.601000
7.913693	0.296546	0.518845	209.101000
7.933615	0.311068	0.519747	209.601000
7.954132	0.326763	0.520849	210.101000
7.974508	0.343957	0.522018	210.602000
7.995263	0.362215	0.523118	211.101000
8.016139	0.381043	0.524017	211.601000
8.036989	0.399329	0.524886	212.101000
8.056741	0.418355	0.525702	212.601000
8.077045	0.437234	0.526720	213.101000
8.097528	0.455509	0.527866	213.601000
8.118756	0.472898	0.529183	214.101000
8.139127	0.489583	0.530673	214.601000
8.159088	0.505219	0.532123	215.101000
8.179486	0.519700	0.533639	215.601000
8.200397	0.533878	0.534953	216.101000
8.220971	0.546777	0.536207	216.601000
8.240542	0.558505	0.537518	217.101000
8.260736	0.569049	0.538846	217.601000
8.281731	0.578950	0.540130	218.101000
8.303625	0.587773	0.541416	218.601000
8.323804	0.595307	0.542702	219.101000
8.345309	0.601577	0.543958	219.601000
8.365353	0.607102	0.545441	220.101000
8.385556	0.612168	0.547039	220.601000
8.407477	0.615764	0.548683	221.101000
8.428263	0.617841	0.550266	221.601000
8.448422	0.618683	0.551732	222.101000
8.469119	0.618846	0.553267	222.601000
8.489120	0.618163	0.554808	223.101000
8.510965	0.616055	0.556448	223.601000
8.531287	0.613686	0.558071	224.101000
8.551483	0.610592	0.559704	224.601000
8.570926	0.605876	0.561195	225.101000
8.591086	0.600765	0.562738	225.601000
8.612493	0.596038	0.564702	226.101000
8.633084	0.590687	0.566766	226.601000
8.653520	0.584346	0.568739	227.101000
8.674580	0.577852	0.570496	227.601000
8.695869	0.571066	0.572210	228.101000
8.716724	0.563527	0.574010	228.601000
8.737091	0.555410	0.575768	229.101000
8.756738	0.546907	0.577554	229.601000
8.778435	0.538534	0.579319	230.101000
8.800288	0.529234	0.581207	230.601000
8.820613	0.518402	0.583148	231.101000
8.839458	0.507800	0.584932	231.601000
8.859491	0.496595	0.586555	232.101000
8.878820	0.485705	0.588186	232.602000
8.898544	0.474873	0.589827	233.102000
8.918628	0.463765	0.591484	233.601000
8.938565	0.452217	0.593367	234.102000
8.959307	0.440412	0.595216	234.601000
8.980142	0.428481	0.597094	235.101000
9.000385	0.416661	0.598763	235.601000
9.019877	0.404025	0.600325	236.101000
9.039496	0.390653	0.601859	236.601000
9.060324	0.377043	0.603359	237.101000
9.081595	0.363708	0.604749	237.601000
9.101991	0.350404	0.606349	238.101000
9.122354	0.336745	0.607790	238.601000
9.142978	0.322824	0.609110	239.101000
9.163580	0.309514	0.610373	239.601000
9.184386	0.295932	0.611412	240.101000
9.204760	0.282854	0.612263	240.601000
9.226075	0.271070	0.612936	241.101000
9.246726	0.260985	0.613762	241.601000
9.267416	0.252183	0.614440	242.101000
9.290235	0.245718	0.615188	242.602000
9.310482	0.241315	0.615788	243.101000
9.331345	0.239228	0.616359	243.601000
9.352215	0.239774	0.616892	244.102000
9.373327	0.243576	0.617424	244.601000
9.395566	0.249339	0.617894	245.101000
9.416710	0.257161	0.618238	245.601000
9.437337	0.268296	0.618640	246.101000
9.459056	0.282759	0.618945	246.601000
9.480055	0.298786	0.619416	247.101000
9.501727	0.316364	0.620080	247.601000
9.522581	0.335504	0.620880	248.101000
9.544452	0.356820	0.621791	248.602000
9.566680	0.380499	0.622685	249.101000
9.589005	0.404882	0.623630	249.601000
9.609127	0.429446	0.624725	250.101000
9.630366	0.453467	0.625896	250.601000
9.650822	0.477363	0.627153	251.101000
9.674328	0.501939	0.628197	251.601000
9.695887	0.526820	0.629199	252.101000
9.716422	0.550009	0.630229	252.601000
9.737818	0.572067	0.631435	253.102000
9.759531	0.593544	0.632605	253.601000
9.782001	0.615477	0.633812	254.101000
9.803391	0.637053	0.634975	254.601000
9.826172	0.656624	0.636055	255.101000
9.848435	0.674556	0.637139	255.601000
9.870994	0.692442	0.638351	256.102000
9.892519	0.710102	0.639870	256.601000
9.912386	0.727640	0.641496	257.102000
9.933478	0.744243	0.642992	257.601000
9.954664	0.758896	0.644473	258.102000
9.976672	0.772500	0.645920	258.602000
9.996767	0.785597	0.647309	259.101000
10.016998	0.798029	0.648745	259.601000
10.037299	0.809321	0.650117	260.101000
10.058615	0.820014	0.651361	260.601000
10.080475	0.830510	0.652616	261.101000
10.100449	0.839145	0.654106	261.601000
10.121786	0.846413	0.655742	262.101000
10.142955	0.853613	0.657280	262.601000
10.162928	0.859891	0.658792	263.101000
10.183561	0.864390	0.660447	263.602000
10.204477	0.868607	0.662053	264.102000
10.224994	0.872812	0.663671	264.601000
10.246277	0.876287	0.665043	265.101000
10.268093	0.879149	0.666344	265.601000
10.289668	0.880179	0.667831	266.101000
10.310848	0.880828	0.669472	266.601000
10.331252	0.881053	0.671150	267.101000
10.352079	0.879872	0.672620	267.601000
10.372325	0.878274	0.674294	268.101000
10.392154	0.876665	0.675892	268.601000
10.416608	0.874425	0.677429	269.101000
10.436288	0.871430	0.678966	269.601000
10.457690	0.866531	0.680457	270.101000
10.480495	0.861702	0.681875	270.601000
10.499223	0.856813	0.683464	271.101000
10.520522	0.851895	0.685083	271.601000
10.544178	0.846611	0.686793	272.101000
10.566066	0.841380	0.688595	272.601000
10.586704	0.834259	0.690279	273.101000
10.606095	0.827110	0.691962	273.601000
10.627954	0.818796	0.693836	274.101000
10.650150	0.809720	0.695717	274.601000
10.670782	0.800630	0.697515	275.101000
10.690552	0.790619	0.699483	275.601000
10.714725	0.779875	0.701395	276.101000
10.736790	0.769010	0.703375	276.601000
10.760583	0.758942	0.705204	277.101000
10.779442	0.749115	0.706866	277.601000
10.797198	0.738935	0.708584	278.101000
10.816044	0.729604	0.710479	278.602000
10.840367	0.719873	0.712560	279.101000
10.861533	0.709364	0.714629	279.601000
10.880992	0.698671	0.716681	280.101000
10.906110	0.688647	0.718465	280.601000
10.928360	0.678445	0.720433	281.101000
10.947503	0.667537	0.722602	281.601000
10.967544	0.655884	0.724558	282.101000
10.988131	0.643516	0.726372	282.601000
11.008534	0.631040	0.728192	283.101000
11.037575	0.618006	0.730068	283.601000
11.061826	0.605348	0.731747	284.101000
11.074343	0.591856	0.733676	284.601000
11.090152	0.577262	0.735777	285.101000
11.107540	0.563252	0.738082	285.601000
11.131535	0.549233	0.740097	286.101000
11.155974	0.536136	0.741924	286.601000
11.174522	0.522388	0.743829	287.101000
11.196208	0.507874	0.745824	287.601000
11.214814	0.493928	0.747682	288.101000
11.237214	0.480494	0.749383	288.601000
11.257255	0.466087	0.751122	289.101000
11.277359	0.451075	0.752929	289.601000
11.297198	0.436779	0.754500	290.101000
11.317171	0.422517	0.755905	290.601000
11.339379	0.406878	0.757182	291.101000
11.359454	0.390470	0.758511	291.601000
11.377919	0.373132	0.759913	292.101000
11.398972	0.354670	0.761013	292.602000
11.418835	0.335517	0.762021	293.101000
11.440846	0.316855	0.762870	293.602000
11.461834	0.298993	0.763636	294.101000
11.483010	0.282453	0.764132	294.601000
11.503853	0.267657	0.764526	295.101000
11.524009	0.253815	0.764861	295.601000
11.541830	0.241154	0.765231	296.101000
11.563700	0.230628	0.765706	296.601000
11.584890	0.222499	0.765983	297.101000
11.605532	0.217844	0.766086	297.601000
11.626564	0.215536	0.766299	298.101000
11.646575	0.215038	0.766538	298.601000
11.666550	0.216817	0.766673	299.101000
11.689053	0.220566	0.766584	299.601000
11.709531	0.226916	0.766643	300.101000
11.729899	0.236604	0.766877	300.601000
11.750551	0.249123	0.767110	301.101000
11.770871	0.263682	0.767399	301.601000
11.790986	0.280754	0.767709	302.101000
11.812170	0.299463	0.768065	302.601000
11.832283	0.320173	0.768570	303.101000
11.852830	0.342537	0.769392	303.602000
11.873869	0.365684	0.770216	304.101000
11.892734	0.389219	0.770823	304.601000
11.912672	0.414191	0.771415	305.101000
11.934530	0.439550	0.772141	305.601000
11.953948	0.465884	0.772962	306.102000
11.973443	0.492382	0.773876	306.601000
11.992994	0.518829	0.774755	307.101000
12.013801	0.545873	0.775543	307.601000
12.032862	0.573217	0.776541	308.101000
12.052979	0.600402	0.777616	308.601000
12.072166	0.626867	0.778703	309.101000
12.092799	0.652415	0.779700	309.601000
12.112683	0.678074	0.780573	310.101000
12.134449	0.703496	0.781495	310.602000
12.155696	0.726618	0.782645	311.101000
12.177559	0.748738	0.783965	311.601000
12.199350	0.771605	0.785271	312.101000
12.220055	0.794477	0.786348	312.601000
12.241004	0.816498	0.787388	313.101000
12.260394	0.838541	0.788516	313.601000
12.281799	0.861043	0.789777	314.101000
12.303053	0.883542	0.790939	314.601000
12.323955	0.904953	0.792262	315.101000
12.343991	0.925632	0.793592	315.601000
12.364259	0.944805	0.794976	316.101000
12.384923	0.963326	0.796213	316.601000
12.406724	0.981363	0.797411	317.102000
12.427959	0.997456	0.798687	317.601000
12.448577	1.013074	0.799984	318.101000
12.469122	1.029276	0.801333	318.601000
12.490381	1.044451	0.802664	319.101000
12.510967	1.058499	0.804032	319.601000
12.530853	1.072131	0.805403	320.101000
12.550038	1.086770	0.806744	320.602000
12.570080	1.101388	0.808184	321.101000
12.590623	1.116386	0.809561	321.601000
12.613878	1.130664	0.811054	322.101000
12.634722	1.143971	0.812413	322.601000
12.655921	1.156181	0.813616	323.101000
12.676135	1.167402	0.814912	323.602000
12.697088	1.177872	0.816271	324.101000
12.718748	1.187474	0.817685	324.601000
12.737967	1.196346	0.819072	325.101000
12.757548	1.205373	0.820461	325.601000
12.778015	1.213753	0.821873	326.101000
12.799375	1.222471	0.823236	326.601000
12.821994	1.230857	0.824692	327.101000
12.842797	1.238693	0.826112	327.601000
12.863095	1.247403	0.827568	328.101000
12.883503	1.256542	0.828993	328.601000
12.905564	1.263798	0.830383	329.102000
12.926490	1.270072	0.831707	329.601000
12.947562	1.276547	0.833071	330.102000
12.968923	1.282203	0.834605	330.601000
12.991856	1.287847	0.835808	331.101000
13.014745	1.293177	0.836945	331.601000
13.036721	1.298102	0.838348	332.101000
13.058776	1.302247	0.839846	332.601000
13.080907	1.305966	0.841501	333.101000
13.103245	1.309601	0.843104	333.601000
13.125681	1.312681	0.844743	334.101000
13.147811	1.315498	0.846323	334.601000
13.168515	1.317472	0.847897	335.102000
13.190210	1.319243	0.849372	335.601000
13.211810	1.321820	0.850651	336.101000
13.233220	1.323951	0.852083	336.601000
13.254999	1.325287	0.853717	337.101000
13.279574	1.326571	0.855359	337.601000
13.301190	1.328681	0.857045	338.102000
13.321870	1.329714	0.858731	338.601000
13.341526	1.329651	0.860401	339.101000
13.362676	1.329498	0.862071	339.601000
13.384397	1.330468	0.863560	340.101000
13.405448	1.331244	0.865041	340.601000
13.425854	1.330630	0.866701	341.101000
13.447434	1.329853	0.868252	341.601000
13.469003	1.327523	0.869826	342.101000
13.490536	1.325303	0.871467	342.601000
13.511444	1.322641	0.873098	343.101000
13.532281	1.319688	0.874630	343.601000
13.553642	1.317199	0.876272	344.101000
13.575767	1.314260	0.878006	344.602000
13.597329	1.310368	0.879689	345.101000
13.619346	1.305809	0.881170	345.601000
13.640870	1.300896	0.882597	346.101000
13.661772	1.295284	0.884220	346.601000
13.683348	1.290180	0.885796	347.101000
13.703894	1.284556	0.887480	347.601000
13.724458	1.279324	0.889385	348.102000
13.744854	1.274614	0.891233	348.601000
13.764380	1.269467	0.893102	349.102000
13.785969	1.263981	0.894848	349.601000
13.806533	1.258686	0.896585	350.101000
13.826810	1.252332	0.898441	350.601000
13.847764	1.244115	0.900176	351.101000
13.869953	1.234961	0.901636	351.601000
13.890238	1.226693	0.903113	352.101000
13.910487	1.219619	0.904854	352.602000
13.930735	1.212857	0.906641	353.101000
13.949942	1.204394	0.908345	353.601000
13.972016	1.194507	0.910129	354.101000
13.992282	1.185272	0.911922	354.601000
14.013764	1.175813	0.913595	355.101000
14.035159	1.165811	0.915331	355.601000
14.056464	1.157284	0.917178	356.101000
14.078260	1.147443	0.919053	356.601000
14.098408	1.137313	0.920901	357.101000
14.118676	1.127601	0.922934	357.601000
14.140466	1.117213	0.924920	358.101000
14.160707	1.105814	0.926863	358.601000
14.181452	1.094540	0.928905	359.102000
14.202477	1.083746	0.930913	359.601000
14.222710	1.072320	0.932700	360.102000
14.243643	1.060858	0.934472	360.601000
14.265286	1.049581	0.936492	361.101000
14.287404	1.039007	0.938581	361.601000
14.308121	1.030036	0.940324	362.101000
14.329371	1.020034	0.941979	362.602000
14.350229	1.008915	0.943696	363.101000
14.370962	0.997094	0.945493	363.601000
14.390953	0.984892	0.947503	364.101000
14.411261	0.972196	0.949682	364.602000
14.432069	0.959776	0.951749	365.101000
14.454154	0.947950	0.953625	365.602000
14.478124	0.936649	0.955595	366.102000
14.499520	0.925683	0.957674	366.601000
14.520035	0.914099	0.959651	367.101000
14.541800	0.902255	0.961545	367.601000
14.563912	0.889715	0.963608	368.101000
14.584962	0.876697	0.965833	368.601000
14.606800	0.864021	0.968069	369.102000
14.629879	0.850796	0.970171	369.601000
14.652453	0.838361	0.972245	370.101000
14.672922	0.824736	0.974377	370.601000
14.691766	0.808930	0.976696	371.101000
14.711781	0.792630	0.978783	371.601000
14.733963	0.777101	0.980846	372.101000
14.754707	0.761670	0.983026	372.601000
14.776021	0.746555	0.985237	373.101000
14.796971	0.731165	0.987500	373.601000
14.818193	0.714454	0.989654	374.101000
14.840720	0.697464	0.991619	374.602000
14.862535	0.680754	0.993595	375.101000
14.882849	0.664788	0.995603	375.601000
14.903527	0.648084	0.997771	376.101000
14.923197	0.630349	0.999839	376.601000
14.945829	0.611937	1.001725	377.101000
14.965949	0.593556	1.003626	377.601000
14.986689	0.575421	1.005441	378.101000
15.008239	0.554656	1.006958	378.601000
15.028145	0.533199	1.008235	379.101000
15.049632	0.511945	1.009482	379.601000
15.071217	0.490768	1.010827	380.101000
15.091749	0.468836	1.012200	380.601000
15.111041	0.447797	1.013254	381.101000
15.131919	0.425357	1.014190	381.601000
15.153928	0.402549	1.015029	382.101000
15.174254	0.380056	1.015710	382.601000
15.194687	0.357830	1.016254	383.101000
15.216153	0.335824	1.016701	383.601000
15.236929	0.313848	1.016976	384.101000
15.255774	0.293083	1.017269	384.602000
15.276016	0.272905	1.017613	385.101000
15.295209	0.255941	1.017730	385.602000
15.316879	0.241592	1.017755	386.101000
15.337100	0.228867	1.017892	386.601000
15.358733	0.217629	1.017861	387.101000
15.379514	0.208638	1.017762	387.601000
15.401508	0.202227	1.017735	388.101000
15.420844	0.197736	1.017666	388.601000
15.440782	0.195101	1.017592	389.101000
15.461894	0.195236	1.017590	389.601000
15.482944	0.197348	1.017552	390.102000
15.502107	0.200191	1.017462	390.601000
15.522787	0.203670	1.017518	391.101000
15.543909	0.209168	1.017667	391.601000
15.563589	0.216436	1.017649	392.101000
15.583919	0.225417	1.017491	392.601000
15.603705	0.237697	1.017351	393.101000
15.624238	0.250333	1.017214	393.601000
15.644071	0.262416	1.017047	394.101000
15.664078	0.275630	1.017084	394.601000
15.684309	0.290561	1.017228	395.101000
15.704739	0.306143	1.017344	395.601000
15.724719	0.321704	1.017469	396.101000
15.745047	0.340789	1.017701	396.601000
15.764495	0.362318	1.017839	397.101000
15.785379	0.385284	1.018137	397.601000
15.804185	0.409288	1.018377	398.101000
15.827843	0.435105	1.018620	398.601000
15.848937	0.461861	1.019136	399.101000
15.869565	0.490008	1.019688	399.601000
15.888575	0.519094	1.020080	400.102000
15.910101	0.548342	1.020524	400.601000
15.931305	0.578163	1.020951	401.101000
15.951859	0.608616	1.021447	401.601000
15.976300	0.639896	1.022097	402.101000
15.993641	0.670120	1.022914	402.601000
16.014195	0.700722	1.023914	403.101000
16.034926	0.730913	1.024706	403.601000
16.055020	0.760975	1.025792	404.101000
16.077154	0.790098	1.026871	404.601000
16.096797	0.818608	1.027739	405.101000
16.118710	0.847198	1.028724	405.601000
16.138007	0.876617	1.029656	406.101000
16.156128	0.905460	1.030509	406.601000
16.176141	0.933344	1.031467	407.101000
16.198168	0.960016	1.032510	407.601000
16.220413	0.986205	1.033661	408.101000
16.238956	1.011500	1.034899	408.601000
16.258290	1.036363	1.036115	409.101000
16.277942	1.061131	1.037239	409.601000
16.300297	1.085141	1.038353	410.102000
16.321764	1.107619	1.039413	410.601000
16.340009	1.130983	1.040576	411.101000
16.361288	1.153386	1.041870	411.601000
16.382083	1.175637	1.042925	412.101000
16.403387	1.197049	1.044134	412.601000
16.427301	1.218840	1.045491	413.101000
16.445435	1.239933	1.046723	413.601000
16.467536	1.261145	1.048060	414.101000
16.487158	1.280813	1.049386	414.602000
16.507359	1.299114	1.050756	415.101000
16.526379	1.318403	1.052164	415.601000
16.548755	1.336479	1.053321	416.101000
16.567987	1.353661	1.054326	416.601000
16.586588	1.370020	1.055393	417.101000
16.609910	1.386594	1.056700	417.601000
16.629080	1.402755	1.058164	418.102000
16.647461	1.418075	1.059424	418.601000
16.667157	1.434967	1.060631	419.101000
16.687723	1.451309	1.062090	419.601000
16.708727	1.466017	1.063614	420.102000
16.729216	1.480654	1.065185	420.601000
16.749341	1.494182	1.066652	421.102000
16.768944	1.507092	1.067925	421.601000
16.790842	1.520036	1.069187	422.102000
16.811443	1.533060	1.070456	422.601000
16.832360	1.545832	1.071769	423.101000
16.851483	1.559727	1.072950	423.601000
16.871547	1.572528	1.074200	424.101000
16.892941	1.584268	1.075555	424.601000
16.912531	1.597312	1.076879	425.101000
16.932617	1.610629	1.078308	425.602000
16.953669	1.622617	1.079834	426.101000
16.974531	1.633432	1.081289	426.602000
16.995952	1.641643	1.082839	427.101000
17.016062	1.651077	1.084331	427.601000
17.036113	1.662243	1.085668	428.101000
17.056782	1.673959	1.087025	428.601000
17.078335	1.684545	1.088378	429.101000
17.098458	1.693634	1.089818	429.601000
17.119414	1.701525	1.091252	430.102000
17.139708	1.707057	1.092609	430.601000
17.160345	1.714146	1.094190	431.101000
17.179706	1.722287	1.095581	431.601000
17.201147	1.731283	1.096956	432.101000
17.222432	1.740379	1.098353	432.602000
17.242099	1.749253	1.099717	433.102000
17.261491	1.757046	1.101043	433.601000
17.281313	1.764455	1.102420	434.101000
17.301496	1.771164	1.103934	434.602000
17.322224	1.777681	1.105265	435.101000
17.341565	1.784293	1.106629	435.602000
17.362496	1.789793	1.108080	436.101000
17.384030	1.795784	1.109477	436.601000
17.406008	1.804182	1.110954	437.101000
17.427061	1.811307	1.112344	437.601000
17.446902	1.817632	1.113785	438.101000
17.466930	1.823256	1.115197	438.601000
17.489017	1.829272	1.116601	439.101000
17.511652	1.833384	1.118002	439.601000
17.531085	1.837727	1.119571	440.101000
17.552740	1.843001	1.121085	440.601000
17.574356	1.847903	1.122547	441.101000
17.596316	1.853069	1.124071	441.601000
17.616798	1.857436	1.125699	442.101000
17.636674	1.861358	1.127154	442.601000
17.657343	1.866304	1.128579	443.101000
17.680168	1.870572	1.130124	443.601000
17.700779	1.874417	1.131642	444.101000
17.721439	1.877731	1.133274	444.601000
17.741638	1.881935	1.134958	445.101000
17.761737	1.884814	1.136494	445.601000
17.781998	1.887612	1.137801	446.101000
17.801981	1.890742	1.139052	446.601000
17.822363	1.895053	1.140205	447.101000
17.842171	1.899457	1.141417	447.601000
17.862420	1.904028	1.142685	448.101000
17.882977	1.908487	1.143948	448.601000
17.904059	1.912942	1.145401	449.101000
17.924026	1.916075	1.146683	449.601000
17.942883	1.918315	1.147761	450.101000
17.962253	1.920945	1.148867	450.601000
17.982791	1.922487	1.150123	451.101000
18.003789	1.923068	1.151498	451.601000
18.024508	1.922943	1.153123	452.101000
18.044775	1.924506	1.154598	452.601000
18.065699	1.926412	1.156109	453.101000
18.086003	1.928621	1.157590	453.601000
18.106165	1.931602	1.158975	454.101000
18.126776	1.934764	1.160193	454.601000
18.148196	1.936647	1.161478	455.101000
18.169130	1.938410	1.162852	455.602000
18.189632	1.939935	1.164265	456.101000
18.209720	1.941514	1.165741	456.601000
18.230639	1.943164	1.167145	457.101000
18.252253	1.945392	1.168587	457.601000
18.274439	1.947694	1.170025	458.101000
18.295814	1.948007	1.171465	458.602000
18.316657	1.947780	1.172874	459.101000
18.337350	1.949432	1.174162	459.601000
18.358398	1.951716	1.175441	460.101000
18.380789	1.953690	1.176558	460.601000
18.401651	1.955591	1.177730	461.101000
18.424821	1.955430	1.178946	461.601000
18.447114	1.955497	1.180398	462.101000
18.468673	1.957058	1.182022	462.601000
18.489741	1.958988	1.183514	463.101000
18.509559	1.961019	1.184991	463.601000
18.530813	1.962873	1.186267	464.101000
18.552390	1.965049	1.187522	464.601000
18.575348	1.964871	1.188844	465.101000
18.598376	1.965130	1.190298	465.601000
18.618970	1.966368	1.191907	466.101000
18.639783	1.968118	1.193485	466.601000
18.660167	1.970547	1.194975	467.101000
18.680651	1.973520	1.196279	467.601000
18.700549	1.975667	1.197662	468.101000
18.720324	1.978348	1.199258	468.601000
18.741412	1.980387	1.200738	469.101000
18.761975	1.982642	1.202110	469.601000
18.782348	1.984248	1.203550	470.102000
18.803990	1.985560	1.204859	470.601000
18.824972	1.986401	1.205935	471.102000
18.844353	1.987223	1.206960	471.601000
18.865625	1.988359	1.208131	472.101000
18.886110	1.989639	1.209507	472.601000
18.906024	1.991065	1.210925	473.101000
18.926886	1.992463	1.212210	473.602000
18.948568	1.994271	1.213715	474.102000
18.970097	1.995908	1.215146	474.601000
18.990811	1.997496	1.216493	475.101000
19.011620	1.999632	1.217703	475.602000
19.033982	2.002520	1.218847	476.101000
19.056481	2.004730	1.220189	476.601000
19.077607	2.006659	1.221565	477.101000
19.099464	2.007962	1.222906	477.601000
19.120213	2.009115	1.224319	478.101000
19.141707	2.011017	1.225675	478.601000
19.163306	2.013004	1.227184	479.101000
19.184518	2.014836	1.228828	479.601000
19.205982	2.015275	1.230547	480.102000
19.228334	2.016123	1.232013	480.601000
19.249934	2.017328	1.233361	481.102000
19.271119	2.019000	1.234679	481.601000
19.292646	2.021201	1.236003	482.101000
19.314517	2.022355	1.237554	482.601000
19.336771	2.022313	1.239171	483.102000
19.358090	2.021136	1.240749	483.601000
19.379161	2.021369	1.242270	484.102000
19.400948	2.022645	1.243963	484.601000
19.421573	2.024131	1.245686	485.101000
19.443218	2.025196	1.247274	485.602000
19.463998	2.025537	1.248695	486.101000
19.484178	2.025760	1.250184	486.601000
19.504914	2.027657	1.251632	487.101000
19.526899	2.030218	1.253019	487.601000
19.547998	2.031877	1.254432	488.101000
19.568797	2.032388	1.255890	488.601000
19.591525	2.032473	1.257461	489.101000
19.612460	2.032097	1.258935	489.601000
19.632764	2.031430	1.260446	490.101000
19.654344	2.030830	1.261876	490.601000
19.673780	2.028322	1.263608	491.101000
19.694044	2.027234	1.265258	491.601000
19.714615	2.027521	1.266669	492.101000
19.735605	2.026514	1.268081	492.601000
19.754888	2.024474	1.269657	493.101000
19.775241	2.022624	1.271419	493.601000
19.794868	2.020987	1.273059	494.102000
19.815280	2.019389	1.274644	494.602000
19.837408	2.018156	1.276177	495.101000
19.859166	2.017250	1.277836	495.601000
19.880158	2.017253	1.279440	496.101000
19.901284	2.016327	1.280931	496.601000
19.921524	2.014777	1.282529	497.101000
19.942737	2.012668	1.284122	497.601000
19.963324	2.009638	1.285640	498.101000
19.984424	2.006923	1.287321	498.601000
20.005569	2.004313	1.288993	499.101000
20.025705	2.001336	1.290622	499.601000
20.045938	1.998075	1.292187	500.101000
20.066385	1.994376	1.293723	500.601000
20.088095	1.991350	1.295452	501.101000
20.108943	1.988225	1.297292	501.601000
20.130763	1.984119	1.298918	502.101000
20.150207	1.979530	1.300573	502.601000
20.171034	1.975052	1.302158	503.101000
20.192659	1.970211	1.303643	503.601000
20.213038	1.965526	1.305217	504.101000
20.232272	1.959651	1.306955	504.601000
20.254099	1.953547	1.308861	505.101000
20.273486	1.947925	1.310690	505.601000
20.294052	1.943793	1.312380	506.101000
20.314539	1.939563	1.313982	506.602000
20.335172	1.934390	1.315665	507.101000
20.354747	1.928864	1.317356	507.602000
20.375334	1.923358	1.319309	508.101000
20.397575	1.917345	1.321199	508.601000
20.418422	1.911021	1.322962	509.101000
20.438594	1.905370	1.324628	509.601000
20.458432	1.898748	1.326333	510.101000
20.478434	1.892874	1.328060	510.601000
20.499459	1.887181	1.329932	511.101000
20.519207	1.880244	1.331772	511.601000
20.539434	1.872602	1.333446	512.101000
20.558593	1.864638	1.335185	512.601000
20.578655	1.856615	1.337029	513.101000
20.599194	1.848904	1.339039	513.601000
20.619402	1.841070	1.340817	514.102000
20.640926	1.832496	1.342511	514.601000
20.660917	1.824026	1.344146	515.102000
20.681986	1.816181	1.345810	515.601000
20.702477	1.807960	1.347585	516.101000
20.725145	1.798893	1.349335	516.602000
20.746000	1.790077	1.351053	517.101000
20.766101	1.781510	1.352832	517.601000
20.787258	1.773076	1.354647	518.101000
20.809020	1.764196	1.356628	518.601000
20.829865	1.754699	1.358617	519.101000
20.849868	1.744875	1.360514	519.601000
20.866714	1.735290	1.362270	520.101000
20.889838	1.726128	1.364008	520.601000
20.912193	1.716414	1.366034	521.101000
20.929627	1.706339	1.368093	521.601000
20.947886	1.696263	1.370135	522.102000
20.969253	1.686508	1.372137	522.601000
20.989379	1.677331	1.374087	523.102000
21.012201	1.668515	1.376023	523.601000
21.032084	1.659776	1.378020	524.101000
21.052349	1.650474	1.379925	524.601000
21.070819	1.641025	1.381996	525.101000
21.091074	1.631824	1.384064	525.601000
21.112959	1.622482	1.386201	526.101000
21.134298	1.613437	1.388192	526.601000
21.153896	1.604457	1.390207	527.101000
21.175644	1.595666	1.392334	527.601000
21.197155	1.587196	1.394340	528.101000
21.217371	1.578518	1.396352	528.602000
21.236285	1.569569	1.398358	529.101000
21.255673	1.559955	1.400448	529.601000
21.275943	1.550554	1.402529	530.101000
21.297190	1.541709	1.404585	530.602000
21.318059	1.532548	1.406777	531.101000
21.340967	1.523438	1.408910	531.601000
21.362658	1.514293	1.411095	532.102000
21.379046	1.505464	1.413339	532.601000
21.396508	1.496264	1.415621	533.101000
21.414891	1.487370	1.417937	533.601000
21.436071	1.478054	1.420110	534.101000
21.455772	1.468057	1.422324	534.601000
21.474067	1.458088	1.424565	535.101000
21.495000	1.448370	1.426782	535.601000
21.514276	1.438602	1.428748	536.101000
21.534006	1.428680	1.430658	536.602000
21.553588	1.418404	1.432809	537.101000
21.572754	1.408016	1.435064	537.601000
21.593290	1.397625	1.437367	538.101000
21.616006	1.386483	1.439497	538.601000
21.635776	1.374814	1.441600	539.101000
21.654173	1.363669	1.443840	539.602000
21.675052	1.352089	1.446163	540.101000
21.694852	1.339833	1.448314	540.602000
21.714629	1.327819	1.450443	541.102000
21.735136	1.315390	1.452678	541.601000
21.756561	1.302161	1.454878	542.101000
21.776099	1.288933	1.457083	542.601000
21.797789	1.275298	1.459269	543.101000
21.818396	1.260873	1.461255	543.601000
21.839351	1.246431	1.463332	544.101000
21.860969	1.230863	1.465853	544.601000
21.881884	1.214339	1.467972	545.101000
21.902786	1.197178	1.469944	545.601000
21.923061	1.179170	1.472016	546.101000
21.946067	1.161152	1.474226	546.602000
21.967582	1.142222	1.476359	547.101000
21.983800	1.122504	1.478490	547.601000
22.003911	1.102107	1.480595	548.101000
22.023927	1.081053	1.482575	548.601000
22.043574	1.059915	1.484501	549.101000
22.064775	1.038664	1.486468	549.601000
22.087956	1.018201	1.488539	550.101000
22.109601	0.997608	1.490382	550.601000
22.131805	0.975963	1.492284	551.101000
22.155035	0.953139	1.494296	551.601000
22.178673	0.929181	1.496310	552.102000
22.200024	0.903770	1.498282	552.601000
22.222058	0.877934	1.500170	553.102000
22.244655	0.852189	1.501939	553.601000
22.269341	0.825875	1.503565	554.101000
22.291641	0.799252	1.505316	554.601000
22.313971	0.772331	1.506919	555.101000
22.335904	0.745072	1.508327	555.601000
22.357914	0.717420	1.509572	556.102000
22.379478	0.689192	1.510765	556.601000
22.400679	0.660582	1.511828	557.101000
22.421737	0.632011	1.512816	557.601000
22.441957	0.603857	1.513851	558.101000
22.462951	0.576573	1.514865	558.601000
22.484128	0.549849	1.515477	559.101000
22.505613	0.523403	1.515911	559.601000
22.526115	0.497482	1.516330	560.101000
22.546152	0.472005	1.516696	560.601000
22.566429	0.447484	1.516984	561.101000
22.586811	0.423719	1.517112	561.601000
22.608633	0.400983	1.517207	562.102000
22.628472	0.379972	1.517344	562.601000
22.649023	0.360196	1.517564	563.101000
22.669463	0.341553	1.517674	563.601000
22.690504	0.324014	1.517678	564.102000
22.711993	0.307842	1.517737	564.601000
22.733041	0.293151	1.517840	565.101000
22.753705	0.279605	1.517989	565.601000
22.774280	0.267503	1.518125	566.102000
22.795253	0.256497	1.518188	566.601000
22.815210	0.247129	1.518246	567.101000
22.834269	0.239518	1.518250	567.601000
22.855917	0.233486	1.518222	568.101000
22.875559	0.228537	1.518247	568.601000
22.895578	0.224674	1.518279	569.101000
22.915906	0.221589	1.518260	569.601000
22.935536	0.219204	1.518174	570.101000
22.956319	0.217908	1.518259	570.601000
22.977117	0.217367	1.518319	571.102000
22.997885	0.217992	1.518139	571.601000
23.017287	0.219810	1.518068	572.101000
23.037906	0.221759	1.518049	572.601000
23.059801	0.224208	1.517815	573.101000
23.080362	0.227185	1.517777	573.601000
23.101086	0.230654	1.517845	574.102000
23.120175	0.234834	1.517973	574.601000
23.140539	0.239541	1.517967	575.102000
23.161311	0.244616	1.517963	575.601000
23.182138	0.249620	1.518037	576.102000
23.202204	0.254900	1.517986	576.602000
23.223488	0.260473	1.517866	577.101000
23.245644	0.266981	1.517817	577.601000
23.268338	0.273909	1.517910	578.101000
23.289085	0.281029	1.517939	578.601000
23.310730	0.288862	1.517852	579.101000
23.332295	0.297325	1.517703	579.602000
23.354242	0.306053	1.517618	580.101000
23.375087	0.315003	1.517533	580.602000
23.396113	0.324168	1.517450	581.101000
23.417776	0.333707	1.517461	581.601000
23.439775	0.343350	1.517434	582.101000
23.461761	0.353523	1.517248	582.601000
23.481972	0.364891	1.517236	583.102000
23.503091	0.377268	1.517339	583.601000
23.524788	0.390178	1.517249	584.101000
23.546429	0.403531	1.516986	584.601000
23.567381	0.417586	1.516790	585.102000
23.588089	0.432149	1.516642	585.601000
23.608398	0.447323	1.516519	586.102000
23.630246	0.463294	1.516349	586.601000
23.650946	0.480255	1.516135	587.101000
23.672659	0.498246	1.516039	587.602000
23.694154	0.517140	1.515965	588.101000
23.715040	0.536733	1.515931	588.602000
23.737292	0.557450	1.515814	589.101000
23.757447	0.579014	1.515653	589.601000
23.776661	0.601333	1.515488	590.101000
23.796653	0.624533	1.515485	590.601000
23.816770	0.649293	1.515473	591.101000
23.838693	0.675517	1.515536	591.602000
23.859619	0.702592	1.515582	592.101000
23.879846	0.730359	1.515670	592.601000
23.900725	0.758893	1.516013	593.101000
23.922577	0.787897	1.516280	593.601000
23.942829	0.817548	1.516408	594.102000
23.964190	0.847904	1.516353	594.601000
23.984722	0.879233	1.516564	595.101000
24.005952	0.911542	1.516909	595.601000
24.027551	0.944475	1.517208	596.101000
24.049609	0.978035	1.517554	596.601000
24.070853	1.012119	1.517983	597.101000
24.093123	1.047116	1.518357	597.602000
24.113553	1.082345	1.518753	598.101000
24.134757	1.117574	1.519147	598.601000
24.155681	1.153027	1.519610	599.101000
24.175803	1.188762	1.520332	599.601000
24.196804	1.224190	1.521255	600.101000
24.216674	1.259444	1.522329	600.601000
24.237021	1.294267	1.523243	601.101000
24.257317	1.328741	1.523911	601.602000
24.278442	1.362891	1.524521	602.102000
24.297851	1.396896	1.525447	602.601000
24.318418	1.430502	1.526442	603.102000
24.340468	1.464005	1.527401	603.601000
24.360875	1.497239	1.528395	604.101000
24.383227	1.530211	1.529415	604.601000
24.402151	1.562761	1.530373	605.101000
24.421849	1.594858	1.531228	605.601000
24.443103	1.626359	1.532068	606.101000
24.463577	1.657310	1.533062	606.601000
24.485087	1.687432	1.534308	607.102000
24.505801	1.716795	1.535466	607.601000
24.525990	1.745675	1.536696	608.101000
24.546890	1.774329	1.537944	608.601000
24.566767	1.802609	1.539159	609.101000
24.587967	1.830292	1.540296	609.602000
24.609834	1.857218	1.541435	610.101000
24.630591	1.883388	1.542775	610.601000
24.652188	1.909232	1.544165	611.101000
24.672667	1.934466	1.545429	611.602000
24.693207	1.959876	1.546707	612.101000
24.713223	1.985344	1.547883	612.602000
24.732435	2.008679	1.549126	613.102000
24.752602	2.031548	1.550393	613.601000
24.773764	2.054122	1.551881	614.101000
24.795129	2.076162	1.553316	614.601000
24.816096	2.096689	1.554811	615.101000
24.836097	2.117144	1.556291	615.601000
24.856415	2.138558	1.557572	616.101000
24.876300	2.159821	1.558872	616.601000
24.896515	2.180424	1.560281	617.101000
24.916820	2.199888	1.561761	617.601000
24.937934	2.219138	1.563246	618.101000
24.958205	2.238131	1.564587	618.601000
24.978198	2.256642	1.566065	619.101000
24.999192	2.275424	1.567400	619.601000
25.020110	2.292285	1.568961	620.101000
25.040414	2.308410	1.570392	620.601000
25.060329	2.324967	1.571841	621.101000
25.080025	2.342142	1.573197	621.602000
25.100824	2.359246	1.574242	622.101000
25.121546	2.375172	1.575343	622.602000
25.142050	2.390548	1.576633	623.102000
25.160757	2.404936	1.578174	623.601000
25.181606	2.418597	1.579831	624.101000
25.203698	2.433217	1.581316	624.601000
25.223742	2.446744	1.582835	625.101000
25.245106	2.459872	1.584085	625.601000
25.265594	2.474161	1.585398	626.102000
25.287755	2.487305	1.586728	626.601000
25.307631	2.500174	1.588155	627.102000
25.331116	2.513720	1.589427	627.601000
25.351971	2.526032	1.590646	628.102000
25.371859	2.538108	1.591938	628.601000
25.394505	2.549745	1.593490	629.101000
25.414570	2.561334	1.595201	629.602000
25.435324	2.573244	1.596939	630.101000
25.456773	2.585918	1.598636	630.601000
25.478393	2.598439	1.600226	631.101000
25.500897	2.609872	1.601795	631.601000
25.520810	2.620756	1.603296	632.101000
25.539606	2.632219	1.604622	632.601000
25.560255	2.644004	1.605900	633.101000
25.581957	2.654893	1.607457	633.601000
25.602489	2.665734	1.608987	634.102000
25.623305	2.675542	1.610589	634.601000
25.643357	2.683234	1.612350	635.101000
25.665137	2.692176	1.613950	635.601000
25.687393	2.701877	1.615261	636.101000
25.707684	2.710485	1.616605	636.601000
25.729647	2.717723	1.618178	637.102000
25.751445	2.725807	1.619756	637.601000
25.771824	2.735186	1.621283	638.102000
25.795884	2.744057	1.622714	638.602000
25.815104	2.753139	1.624274	639.101000
25.834712	2.760979	1.625855	639.601000
25.856426	2.769797	1.627496	640.101000
25.876535	2.777936	1.629130	640.601000
25.896985	2.785246	1.630689	641.101000
25.918369	2.792175	1.632279	641.601000
25.940823	2.799412	1.634027	642.101000
25.963754	2.806928	1.635610	642.601000
25.985882	2.814361	1.636988	643.102000
26.008069	2.821693	1.638502	643.601000
26.023427	2.827729	1.640270	644.101000
26.044996	2.834917	1.641851	644.601000
26.064636	2.842134	1.643147	645.101000
26.086075	2.849778	1.644546	645.601000
26.106018	2.858086	1.645928	646.101000
26.125906	2.865203	1.647315	646.601000
26.145149	2.869960	1.648596	647.102000
26.165530	2.875561	1.650075	647.601000
26.183720	2.881941	1.651661	648.102000
26.202673	2.889616	1.653120	648.602000
26.218236	2.896291	1.654413	649.101000
26.238910	2.901060	1.655654	649.601000
26.261216	2.905916	1.657006	650.101000
26.281385	2.911909	1.658280	650.602000
26.304052	2.918407	1.659608	651.101000
26.323920	2.924390	1.661128	651.601000
26.341669	2.929673	1.662672	652.101000
26.364783	2.933976	1.664359	652.601000
26.392937	2.936898	1.665785	653.101000
26.404332	2.940138	1.667268	653.602000
26.424206	2.943386	1.668866	654.101000
26.441090	2.946169	1.670400	654.601000
26.458716	2.950063	1.671794	655.101000
26.479938	2.955326	1.673255	655.601000
26.503931	2.960557	1.674645	656.101000
26.518045	2.965324	1.675964	656.601000
26.539743	2.969673	1.677448	657.102000
26.561243	2.974568	1.678871	657.601000
26.583017	2.978457	1.680325	658.101000
26.602380	2.981681	1.681778	658.602000
26.623088	2.984297	1.683252	659.101000
26.644827	2.988138	1.684646	659.601000
26.661470	2.991953	1.686061	660.101000
26.683191	2.995325	1.687484	660.601000
26.700500	2.998212	1.689041	661.101000
26.721606	3.000956	1.690577	661.602000
26.738392	3.003997	1.692100	662.101000
26.759025	3.006995	1.693686	662.602000
26.777369	3.010363	1.695265	663.101000
26.799357	3.012609	1.696690	663.602000
26.820283	3.015333	1.698136	664.101000
26.838637	3.019015	1.699722	664.601000
26.861374	3.023239	1.701220	665.101000
26.884399	3.026909	1.702690	665.601000
26.903268	3.029748	1.704080	666.101000
26.921881	3.031650	1.705422	666.601000
26.941376	3.034491	1.706858	667.101000
26.964135	3.037510	1.708259	667.601000
26.983978	3.041394	1.709452	668.101000
27.005042	3.045871	1.710623	668.601000
27.025724	3.048006	1.712022	669.101000
27.047998	3.048725	1.713469	669.601000
27.068130	3.049970	1.715014	670.101000
27.089618	3.052106	1.716750	670.601000
27.110583	3.054331	1.718619	671.101000
27.131878	3.055640	1.720129	671.602000
27.154306	3.057281	1.721438	672.101000
27.176710	3.058112	1.723052	672.602000
27.195558	3.058387	1.724634	673.101000
27.217688	3.058804	1.726353	673.602000
27.236993	3.059715	1.728032	674.102000
27.257006	3.062103	1.729545	674.601000
27.277908	3.063524	1.731254	675.101000
27.298257	3.063923	1.732749	675.601000
27.320576	3.065534	1.734189	676.102000
27.341689	3.067789	1.735624	676.601000
27.363409	3.068801	1.737055	677.101000
27.383438	3.069691	1.738716	677.601000
27.404368	3.070802	1.740326	678.102000
27.425257	3.071917	1.741834	678.601000
27.446548	3.072819	1.743385	679.102000
27.466975	3.072239	1.745079	679.601000
27.487192	3.072852	1.746645	680.101000
27.507544	3.073279	1.748160	680.601000
27.528851	3.072805	1.749683	681.101000
27.552290	3.073094	1.751334	681.602000
27.573149	3.073492	1.752933	682.101000
27.591046	3.073516	1.754472	682.602000
27.610661	3.073569	1.755973	683.101000
27.631991	3.074902	1.757529	683.602000
27.653048	3.076062	1.759166	684.102000
27.673012	3.076916	1.760781	684.601000
27.692917	3.076737	1.762333	685.101000
27.711594	3.076558	1.763865	685.601000
27.732233	3.076071	1.765385	686.101000
27.752719	3.075554	1.767099	686.601000
27.773685	3.074872	1.768891	687.101000
27.793437	3.074257	1.770538	687.601000
27.813666	3.074412	1.771994	688.101000
27.834258	3.075033	1.773387	688.601000
27.855621	3.075900	1.774826	689.102000
27.875478	3.075733	1.776256	689.601000
27.896252	3.074726	1.777614	690.101000
27.916449	3.073546	1.779066	690.601000
27.937384	3.072478	1.780501	691.101000
27.957669	3.070426	1.782095	691.601000
27.977553	3.068994	1.783636	692.101000
27.997861	3.068584	1.785192	692.602000
28.016897	3.067388	1.786875	693.101000
28.037289	3.066209	1.788510	693.601000
28.058656	3.065730	1.789994	694.101000
28.077983	3.066576	1.791293	694.602000
28.098400	3.068310	1.792584	695.101000
28.119305	3.067409	1.794083	695.601000
28.139725	3.065317	1.795818	696.101000
28.160034	3.062460	1.797692	696.601000
28.180258	3.059717	1.799355	697.101000
28.200729	3.056176	1.801052	697.601000
28.221433	3.052791	1.802808	698.102000
28.241998	3.051401	1.804290	698.601000
28.261921	3.051895	1.805795	699.101000
28.280814	3.052927	1.807384	699.601000
28.301511	3.053055	1.808919	700.101000
28.323233	3.051539	1.810378	700.601000
28.345328	3.050134	1.811813	701.101000
28.366980	3.048797	1.813445	701.601000
28.386929	3.047307	1.815141	702.101000
28.407728	3.045593	1.816886	702.601000
28.428300	3.042363	1.818590	703.101000
28.448447	3.039249	1.820239	703.602000
28.469313	3.037345	1.821789	704.101000
28.489153	3.035756	1.823278	704.601000
28.509363	3.034920	1.824877	705.101000
28.531454	3.034397	1.826488	705.601000
28.551923	3.032352	1.828006	706.101000
28.571436	3.030126	1.829324	706.601000
28.591592	3.027358	1.830987	707.101000
28.612725	3.024713	1.832658	707.601000
28.634075	3.021955	1.834215	708.102000
28.654601	3.018376	1.836026	708.601000
28.674875	3.015526	1.837651	709.101000
28.696383	3.013800	1.839098	709.601000
28.719339	3.012307	1.840405	710.101000
28.741217	3.010766	1.841915	710.601000
28.763528	3.008412	1.843553	711.101000
28.784627	3.004551	1.845226	711.602000
28.805230	3.000808	1.846886	712.101000
28.826023	2.997262	1.848676	712.601000
28.848838	2.994210	1.850371	713.101000
28.869178	2.991784	1.851936	713.601000
28.891391	2.988449	1.853461	714.101000
28.913485	2.985112	1.855064	714.602000
28.935254	2.982495	1.856950	715.101000
28.957010	2.981022	1.858759	715.601000
28.977847	2.979502	1.860512	716.101000
28.999161	2.976836	1.862318	716.601000
29.019437	2.973548	1.863936	717.101000
29.039660	2.970360	1.865586	717.601000
29.058954	2.966571	1.867290	718.102000
29.080604	2.962270	1.868921	718.601000
29.102706	2.956811	1.870474	719.101000
29.122720	2.952067	1.872068	719.601000
29.144516	2.949267	1.873642	720.101000
29.167075	2.947764	1.875168	720.601000
29.188104	2.944899	1.876722	721.101000
29.210180	2.941274	1.878542	721.602000
29.230716	2.937582	1.880101	722.101000
29.252702	2.933430	1.881534	722.601000
29.273616	2.929627	1.883125	723.101000
29.294052	2.925847	1.884908	723.601000
29.314718	2.921522	1.886621	724.101000
29.335560	2.917011	1.888130	724.602000
29.355786	2.911868	1.889538	725.103000
29.376955	2.906228	1.891126	725.601000
29.398169	2.900196	1.892710	726.101000
29.419028	2.894356	1.894464	726.601000
29.440448	2.889916	1.896085	727.102000
29.460966	2.884371	1.897715	727.601000
29.482505	2.878851	1.899111	728.101000
29.503814	2.872921	1.900498	728.601000
29.524418	2.867173	1.901960	729.101000
29.544303	2.861825	1.903437	729.601000
29.565542	2.857375	1.905034	730.101000
29.586490	2.852743	1.906693	730.601000
29.607672	2.848357	1.908389	731.101000
29.630163	2.843193	1.910077	731.601000
29.651548	2.838695	1.911655	732.101000
29.672296	2.834289	1.913155	732.601000
29.692999	2.827869	1.914666	733.101000
29.714814	2.822228	1.915923	733.602000
29.735317	2.816734	1.917309	734.101000
29.755787	2.811665	1.918762	734.601000
29.778031	2.807557	1.920131	735.101000
29.798027	2.802699	1.921563	735.601000
29.818522	2.796781	1.922988	736.102000
29.839880	2.790560	1.924435	736.601000
29.861700	2.783723	1.925765	737.101000
29.883662	2.776403	1.927241	737.601000
29.904147	2.769363	1.928876	738.101000
29.924810	2.763625	1.930224	738.601000
29.946668	2.757723	1.931496	739.101000
29.967167	2.751652	1.932803	739.601000
29.987858	2.745446	1.934116	740.102000
30.008782	2.738243	1.935390	740.601000
30.029361	2.730469	1.936782	741.101000
30.049442	2.722138	1.938250	741.602000
30.070228	2.714817	1.939504	742.101000
30.091366	2.710043	1.940766	742.601000
30.110572	2.704330	1.941922	743.101000
30.129947	2.697998	1.943195	743.602000
30.151793	2.690826	1.944570	744.101000
30.173125	2.683933	1.945839	744.601000
30.194642	2.677157	1.947074	745.101000
30.215631	2.669871	1.948210	745.601000
30.236338	2.663272	1.949330	746.102000
30.257986	2.656705	1.950351	746.601000
30.279611	2.649734	1.951316	747.101000
30.301612	2.643022	1.952533	747.601000
30.324506	2.636765	1.953753	748.101000
30.347303	2.631117	1.954820	748.601000
30.369921	2.625470	1.956009	749.101000
30.392037	2.618958	1.957025	749.601000
30.414764	2.611938	1.958063	750.102000
30.434500	2.605786	1.959194	750.601000
30.454632	2.599761	1.960172	751.102000
30.474921	2.593886	1.961228	751.601000
30.496194	2.589077	1.962362	752.101000
30.517673	2.584647	1.963390	752.601000
30.538232	2.578425	1.964363	753.101000
30.558538	2.571349	1.965383	753.602000
30.581288	2.565322	1.966516	754.101000
30.601559	2.560296	1.967593	754.602000
30.622211	2.555649	1.968542	755.101000
30.647019	2.551222	1.969473	755.602000
30.667420	2.545287	1.970554	756.101000
30.687722	2.538789	1.971776	756.601000
30.712689	2.533647	1.973039	757.101000
30.733196	2.529303	1.974072	757.601000
30.755502	2.525217	1.974997	758.101000
30.778048	2.520360	1.975969	758.601000
30.799255	2.515313	1.976786	759.102000
30.826657	2.510415	1.977396	759.601000
30.847749	2.505633	1.978228	760.102000
30.867881	2.501191	1.979208	760.601000
30.888615	2.496033	1.980247	761.102000
30.909187	2.491686	1.981194	761.601000
30.932620	2.487729	1.981962	762.101000
30.954327	2.483931	1.982765	762.601000
30.968808	2.480953	1.983474	763.101000
30.990844	2.478867	1.984119	763.601000
31.012137	2.478001	1.984803	764.101000
31.031437	2.478202	1.985543	764.601000
31.053272	2.478357	1.986415	765.101000
31.072773	2.479400	1.987148	765.601000
31.094501	2.479623	1.987837	766.101000
31.116572	2.480123	1.988765	766.602000
31.139575	2.479626	1.989686	767.101000
31.168330	2.477941	1.990455	767.601000
31.193358	2.476582	1.991193	768.102000
31.204530	2.475996	1.992081	768.601000
31.220513	2.475717	1.993082	769.102000
31.241476	2.476571	1.993969	769.601000
31.262378	2.478681	1.994778	770.101000
31.283949	2.480447	1.995589	770.601000
31.301801	2.481586	1.996234	771.102000
31.328176	2.482193	1.996913	771.601000
31.352443	2.483257	1.997552	772.101000
31.371256	2.485128	1.998024	772.601000
31.393255	2.487682	1.998589	773.101000
31.412282	2.490480	1.999226	773.601000
31.434228	2.493790	1.999720	774.101000
31.454815	2.497670	2.000435	774.601000
31.482197	2.501895	2.001207	775.101000
31.496749	2.507722	2.002055	775.602000
31.516312	2.512914	2.002923	776.101000
31.537775	2.516463	2.003899	776.602000
31.560096	2.520974	2.004988	777.102000
31.582201	2.526083	2.005874	777.601000
31.605334	2.532496	2.006594	778.102000
31.624671	2.539343	2.007334	778.601000
31.639728	2.546413	2.008051	779.102000
31.661690	2.553461	2.008649	779.601000
31.680627	2.560277	2.009200	780.101000
31.699972	2.566568	2.009929	780.601000
31.719199	2.573343	2.010734	781.101000
31.745589	2.580701	2.011486	781.601000
31.767258	2.588071	2.012229	782.102000
31.783182	2.595155	2.013183	782.601000
31.806071	2.603529	2.014085	783.101000
31.826207	2.612904	2.014987	783.601000
31.851218	2.622557	2.015976	784.101000
31.873929	2.631244	2.016965	784.601000
31.898034	2.639759	2.017892	785.101000
31.918518	2.649459	2.018841	785.602000
31.936930	2.660143	2.019682	786.101000
31.961163	2.670993	2.020586	786.602000
31.983998	2.681753	2.021591	787.101000
32.001072	2.691155	2.022740	787.601000
32.020802	2.701943	2.023800	788.101000
32.046824	2.713417	2.024705	788.601000
32.064248	2.725741	2.025800	789.102000
32.082076	2.739229	2.026938	789.601000
32.101070	2.751279	2.028122	790.102000
32.123351	2.762507	2.029339	790.601000
32.143528	2.772748	2.030487	791.101000
32.165084	2.782470	2.031478	791.601000
32.186521	2.792462	2.032339	792.101000
32.208648	2.803647	2.033272	792.601000
32.227544	2.815024	2.034336	793.101000
32.249220	2.827140	2.035385	793.602000
32.268870	2.839565	2.036380	794.101000
32.290768	2.850569	2.037524	794.602000
32.312067	2.861306	2.038598	795.101000
32.333748	2.873615	2.039620	795.602000
32.351810	2.886529	2.040796	796.101000
32.371179	2.899057	2.041932	796.602000
32.391559	2.911937	2.043037	797.102000
32.412368	2.925178	2.044136	797.601000
32.433933	2.937408	2.045364	798.101000
32.453986	2.948829	2.046620	798.601000
32.474443	2.959192	2.047912	799.101000
32.494279	2.970134	2.049268	799.601000
32.516054	2.982382	2.050515	800.102000
32.534560	2.994809	2.051692	800.601000
32.556418	3.006434	2.052832	801.101000
32.576791	3.019138	2.054137	801.601000
32.598396	3.031548	2.055387	802.102000
32.617860	3.043685	2.056531	802.601000
32.639247	3.054385	2.057853	803.101000
32.658292	3.064529	2.059271	803.601000
32.678210	3.075847	2.060595	804.101000
32.698872	3.087494	2.061873	804.601000
32.719131	3.098792	2.063079	805.101000
32.740657	3.109655	2.064286	805.602000
32.760825	3.120574	2.065415	806.101000
32.781046	3.131317	2.066777	806.601000
32.801288	3.140499	2.068374	807.103000
32.820984	3.149904	2.069882	807.601000
32.842277	3.161023	2.071160	808.101000
32.863499	3.172350	2.072346	808.601000
32.885078	3.182351	2.073731	809.101000
32.905438	3.192905	2.075192	809.601000
32.925996	3.203163	2.076727	810.102000
32.945195	3.213155	2.078378	810.601000
32.965054	3.223337	2.079795	811.102000
32.986074	3.232956	2.081093	811.601000
33.008159	3.242644	2.082434	812.102000
33.029108	3.251572	2.083927	812.601000
33.049656	3.260656	2.085317	813.101000
33.069755	3.269351	2.086706	813.601000
33.090828	3.277267	2.088024	814.101000
33.111018	3.284831	2.089559	814.601000
33.130919	3.292214	2.091182	815.101000
33.149140	3.299809	2.092575	815.602000
33.169390	3.307226	2.093865	816.101000
33.189945	3.315667	2.095291	816.601000
33.210652	3.323685	2.096761	817.101000
33.230862	3.330880	2.098183	817.602000
33.250327	3.337387	2.099789	818.101000
33.269481	3.344552	2.101128	818.601000
33.290426	3.351922	2.102301	819.101000
33.312557	3.358939	2.103770	819.601000
33.334034	3.366128	2.105196	820.101000
33.355670	3.372752	2.106637	820.601000
33.375715	3.380471	2.107805	821.102000
33.397440	3.387597	2.109204	821.601000
33.418254	3.393835	2.110880	822.102000
33.438236	3.399540	2.112372	822.601000
33.457956	3.404155	2.113677	823.101000
33.478660	3.409065	2.115046	823.601000
33.500522	3.414901	2.116667	824.101000
33.521389	3.421032	2.118305	824.602000
33.541619	3.425949	2.119920	825.101000
33.561778	3.431157	2.121339	825.602000
33.581929	3.437780	2.122800	826.101000
33.603719	3.444796	2.124183	826.601000
33.623635	3.451278	2.125451	827.101000
33.643597	3.457861	2.126859	827.601000
33.663831	3.463802	2.128427	828.101000
33.686624	3.468805	2.130008	828.601000
33.707935	3.473800	2.131520	829.101000
33.728694	3.477593	2.132990	829.601000
33.748516	3.480863	2.134462	830.102000
33.769528	3.485689	2.135881	830.601000
33.791977	3.490541	2.137327	831.102000
33.814012	3.494526	2.138765	831.601000
33.836657	3.497669	2.140239	832.102000
33.858696	3.500641	2.141535	832.601000
33.880283	3.504560	2.142722	833.101000
33.902361	3.508261	2.144177	833.601000
33.923948	3.512976	2.145808	834.101000
33.944681	3.517536	2.147324	834.602000
33.965105	3.520296	2.149013	835.101000
33.988012	3.523820	2.150662	835.601000
34.012210	3.528003	2.152221	836.101000
34.033678	3.532465	2.153728	836.602000
34.055961	3.536558	2.155266	837.101000
34.077795	3.540521	2.156800	837.602000
34.098332	3.543295	2.158501	838.102000
34.117994	3.545208	2.160314	838.601000
34.137883	3.547272	2.161777	839.101000
34.158680	3.550279	2.163285	839.601000
34.179201	3.552202	2.164699	840.102000
34.200435	3.554052	2.166025	840.601000
34.219872	3.556301	2.167518	841.102000
34.239030	3.558916	2.169118	841.601000
34.258514	3.560790	2.170669	842.101000
34.278693	3.562927	2.172072	842.601000
34.298496	3.564357	2.173462	843.102000
34.319690	3.566258	2.175001	843.601000
34.340128	3.567489	2.176655	844.101000
34.360199	3.567820	2.178405	844.601000
34.380624	3.568290	2.180011	845.101000
34.401551	3.570096	2.181535	845.601000
34.422211	3.572961	2.182978	846.101000
34.442701	3.577203	2.184348	846.602000
34.463697	3.580258	2.185603	847.101000
34.484117	3.582233	2.186813	847.602000
34.505412	3.583799	2.188286	848.101000
34.526650	3.584783	2.189845	848.602000
34.546606	3.585227	2.191413	849.101000
34.568991	3.585462	2.192979	849.601000
34.591468	3.586021	2.194539	850.102000
34.614849	3.585872	2.196177	850.601000
34.635507	3.586137	2.197810	851.102000
34.655866	3.586846	2.199356	851.601000
34.675677	3.587654	2.200937	852.101000
34.695630	3.588483	2.202475	852.601000
34.715877	3.589781	2.204029	853.102000
34.736371	3.590945	2.205344	853.601000
34.757213	3.592222	2.206746	854.101000
34.779125	3.592446	2.208228	854.601000
34.799234	3.593970	2.209664	855.101000
34.819511	3.594600	2.211082	855.601000
34.840526	3.594621	2.212563	856.101000
34.861302	3.594235	2.214033	856.602000
34.882668	3.594044	2.215622	857.101000
34.904324	3.594382	2.217318	857.601000
34.924493	3.594881	2.218942	858.101000
34.945026	3.595997	2.220532	858.601000
34.967239	3.595513	2.222085	859.101000
34.986662	3.594979	2.223503	859.601000
35.007018	3.594910	2.224807	860.102000
35.027963	3.594526	2.226368	860.601000
35.048353	3.594523	2.227924	861.101000
35.070236	3.594475	2.229323	861.601000
35.090860	3.593277	2.230748	862.101000
35.112100	3.592083	2.232132	862.601000
35.132049	3.591654	2.233696	863.102000
35.152863	3.590401	2.235296	863.601000
35.173297	3.588745	2.236838	864.102000
35.193917	3.586821	2.238355	864.602000
35.214641	3.585339	2.239911	865.101000
35.235474	3.584193	2.241529	865.602000
35.257729	3.583360	2.243125	866.101000
35.277975	3.582952	2.244537	866.601000
35.298535	3.582462	2.245824	867.101000
35.318686	3.581557	2.247272	867.601000
35.340558	3.580117	2.248755	868.101000
35.361456	3.579451	2.250225	868.601000
35.385034	3.578392	2.251585	869.101000
35.406192	3.577998	2.253138	869.601000
35.429417	3.576945	2.254814	870.102000
35.453100	3.575822	2.256456	870.601000
35.471797	3.574735	2.258061	871.101000
35.493107	3.571827	2.259635	871.601000
35.513080	3.567775	2.261179	872.101000
35.532697	3.564272	2.262818	872.601000
35.555866	3.561993	2.264696	873.102000
35.578276	3.559356	2.266419	873.601000
35.599736	3.556569	2.267897	874.102000
35.622476	3.554534	2.269245	874.601000
35.642426	3.552443	2.270463	875.101000
35.665573	3.549991	2.271759	875.601000
35.687659	3.547500	2.273346	876.101000
35.706781	3.544748	2.274960	876.601000
35.729913	3.541408	2.276582	877.101000
35.757526	3.538426	2.278187	877.601000
35.775974	3.535942	2.279628	878.101000
35.792361	3.533510	2.281251	878.601000
35.811491	3.531656	2.283077	879.101000
35.830731	3.529688	2.284834	879.602000
35.851916	3.527391	2.286177	880.101000
35.871744	3.524691	2.287357	880.601000
35.898842	3.521661	2.288756	881.101000
35.915035	3.518288	2.290032	881.601000
35.935569	3.515972	2.291173	882.102000
35.962782	3.513722	2.292391	882.601000
35.980514	3.511233	2.293762	883.102000
35.993879	3.507514	2.295366	883.601000
36.013794	3.503138	2.296956	884.102000
36.031550	3.498736	2.298627	884.602000
36.052680	3.495167	2.300078	885.101000
36.069386	3.492916	2.301447	885.602000
36.089139	3.491702	2.302982	886.101000
36.109519	3.489455	2.304570	886.602000
36.129336	3.486709	2.306175	887.101000
36.148712	3.483885	2.307791	887.601000
36.168338	3.482191	2.309111	888.101000
36.193051	3.480087	2.310561	888.601000
36.211062	3.478291	2.312078	889.101000
36.240269	3.476476	2.313501	889.602000
36.263659	3.473908	2.314895	890.101000
36.271547	3.470293	2.316197	890.601000
36.297617	3.466807	2.317501	891.101000
36.322302	3.464062	2.318817	891.601000
36.339860	3.461045	2.320332	892.102000
36.355273	3.459462	2.321821	892.601000
36.381421	3.457393	2.323143	893.101000
36.402607	3.454281	2.324351	893.601000
36.426518	3.451102	2.325707	894.102000
36.447782	3.448759	2.327149	894.601000
36.466914	3.446560	2.328622	895.101000
36.486218	3.443456	2.330253	895.601000
36.504739	3.439726	2.331840	896.101000
36.526553	3.435779	2.333435	896.601000
36.548434	3.431371	2.335034	897.101000
36.568303	3.426486	2.336410	897.602000
36.586690	3.421990	2.337741	898.101000
36.599683	3.417832	2.338976	898.602000
36.624194	3.414689	2.340383	899.101000
36.636888	3.412064	2.341797	899.602000
36.654688	3.409274	2.343448	900.101000
36.675408	3.405583	2.345052	900.601000
36.697809	3.401494	2.346514	901.101000
36.712708	3.397992	2.347805	901.601000
36.733835	3.394106	2.349123	902.101000
36.755835	3.390286	2.350519	902.601000
36.770755	3.386934	2.351981	903.102000
36.788882	3.383258	2.353516	903.601000
36.812836	3.379483	2.354999	904.101000
36.833409	3.375108	2.356397	904.601000
36.850473	3.370618	2.357591	905.101000
36.871219	3.366590	2.358986	905.601000
36.892926	3.363361	2.360558	906.101000
36.913283	3.359296	2.362011	906.602000
36.935125	3.355384	2.363617	907.101000
36.952332	3.352283	2.365074	907.601000
36.972642	3.347908	2.366582	908.101000
36.996706	3.342819	2.368048	908.602000
37.014275	3.338144	2.369546	909.101000
37.033464	3.334129	2.371319	909.602000
37.055592	3.328539	2.372892	910.101000
37.077698	3.321616	2.374271	910.601000
37.096253	3.316595	2.375556	911.101000
37.118939	3.313166	2.376868	911.601000
37.140283	3.308405	2.378288	912.101000
37.157367	3.303895	2.379875	912.601000
37.179114	3.298681	2.381566	913.101000
37.197338	3.294921	2.383081	913.601000
37.215388	3.290852	2.384409	914.101000
37.237298	3.286891	2.385847	914.601000
37.257971	3.282890	2.387336	915.102000
37.275671	3.278577	2.388987	915.601000
37.299585	3.275024	2.390402	916.101000
37.322598	3.270953	2.391817	916.601000
37.341422	3.267408	2.393387	917.101000
37.360073	3.265162	2.394717	917.602000
37.381636	3.262279	2.396052	918.101000
37.400619	3.258738	2.397491	918.602000
37.424171	3.256704	2.398902	919.101000
37.441867	3.253820	2.400393	919.601000
37.461906	3.250196	2.401963	920.102000
37.482245	3.246279	2.403465	920.601000
37.504054	3.241637	2.405005	921.102000
37.523371	3.236620	2.406519	921.601000
37.543465	3.233250	2.407871	922.102000
37.562916	3.231091	2.409258	922.601000
37.582864	3.228336	2.410823	923.101000
37.602706	3.224885	2.412293	923.601000
37.623473	3.220762	2.413781	924.101000
37.643906	3.217810	2.415059	924.601000
37.664011	3.214834	2.416395	925.101000
37.684625	3.211842	2.417899	925.602000
37.704942	3.209609	2.419435	926.101000
37.725261	3.206077	2.421005	926.602000
37.745780	3.201913	2.422657	927.101000
37.767921	3.198264	2.424256	927.602000
37.786434	3.195969	2.425797	928.101000
37.807932	3.192809	2.427405	928.602000
37.825678	3.187278	2.428915	929.101000
37.849431	3.181098	2.430300	929.601000
37.866590	3.175117	2.431695	930.101000
37.885332	3.168403	2.433211	930.601000
37.905875	3.161959	2.434788	931.102000
37.926261	3.156515	2.436422	931.601000
37.946933	3.149175	2.438197	932.101000
37.966375	3.141349	2.440062	932.601000
37.987566	3.135196	2.441785	933.102000
38.007440	3.129313	2.443127	933.601000
38.028176	3.123156	2.444460	934.102000
38.049941	3.119287	2.445793	934.601000
38.070743	3.118183	2.447201	935.102000
38.090949	3.116398	2.448578	935.601000
38.114217	3.114301	2.449956	936.102000
38.133111	3.111188	2.451431	936.601000
38.153201	3.106790	2.453061	937.101000
38.174295	3.100833	2.454770	937.602000
38.193774	3.095241	2.456282	938.101000
38.214215	3.088793	2.457745	938.602000
38.233662	3.082667	2.459219	939.101000
38.254818	3.077126	2.460842	939.601000
38.275841	3.071031	2.462267	940.101000
38.297937	3.064905	2.463811	940.601000
38.318430	3.058846	2.465464	941.101000
38.338913	3.053515	2.467065	941.601000
38.361765	3.048359	2.468464	942.101000
38.384113	3.043142	2.469666	942.601000
38.405206	3.038314	2.471041	943.101000
38.426638	3.032266	2.472733	943.601000
38.448266	3.026533	2.474199	944.102000
38.470468	3.021343	2.475640	944.601000
38.492655	3.015565	2.477092	945.102000
38.513444	3.007768	2.478673	945.601000
38.534245	2.999819	2.480516	946.102000
38.557761	2.991994	2.482416	946.601000
38.580115	2.983884	2.484111	947.101000
38.601517	2.974055	2.485861	947.602000
38.620782	2.964591	2.487576	948.101000
38.641896	2.955597	2.489249	948.602000
38.663372	2.947584	2.490834	949.101000
38.684390	2.940342	2.492359	949.601000
38.705395	2.932316	2.493914	950.101000
38.725424	2.923420	2.495356	950.602000
38.746209	2.914657	2.496944	951.101000
38.767508	2.906719	2.498521	951.601000
38.788562	2.899731	2.500137	952.101000
38.808899	2.891789	2.501837	952.601000
38.828074	2.884198	2.503487	953.102000
38.848672	2.877529	2.504905	953.601000
38.869089	2.870484	2.506518	954.102000
38.890539	2.864942	2.508111	954.601000
38.910519	2.859617	2.509758	955.101000
38.931210	2.852851	2.511458	955.601000
38.951699	2.844569	2.513105	956.101000
38.972464	2.833456	2.514690	956.602000
38.994584	2.822095	2.516282	957.101000
39.014806	2.812934	2.517884	957.601000
39.035896	2.806457	2.519583	958.101000
39.057169	2.799554	2.521184	958.602000
39.078744	2.793217	2.522705	959.101000
39.099520	2.786468	2.524367	959.601000
39.119141	2.778729	2.526098	960.101000
39.141365	2.770676	2.527786	960.602000
39.160936	2.763522	2.529494	961.101000
39.182114	2.755077	2.531252	961.601000
39.202145	2.746299	2.532889	962.101000
39.223889	2.738104	2.534568	962.601000
39.244328	2.729459	2.536192	963.102000
39.265676	2.720515	2.537740	963.601000
39.286101	2.710953	2.539309	964.101000
39.307285	2.702975	2.540814	964.601000
39.329816	2.696154	2.542287	965.102000
39.349362	2.689722	2.543839	965.601000
39.370380	2.684391	2.545357	966.101000
39.388669	2.677950	2.546953	966.601000
39.408719	2.669843	2.548627	967.101000
39.428256	2.662125	2.550243	967.601000
39.447318	2.655340	2.551690	968.101000
39.467741	2.647832	2.553117	968.601000
39.488155	2.640358	2.554590	969.101000
39.508635	2.633449	2.556183	969.602000
39.527902	2.628987	2.557907	970.101000
39.547453	2.624552	2.559778	970.602000
39.567918	2.618398	2.561516	971.101000
39.587119	2.610277	2.563202	971.601000
39.608238	2.602798	2.564869	972.102000
39.628872	2.596633	2.566527	972.601000
39.649913	2.590390	2.568258	973.102000
39.669530	2.584047	2.570025	973.601000
39.690010	2.577165	2.571712	974.101000
39.708993	2.569675	2.573277	974.601000
39.729114	2.561578	2.574707	975.101000
39.750589	2.554824	2.576252	975.601000
39.770654	2.550307	2.577850	976.101000
39.791241	2.545178	2.579414	976.601000
39.812232	2.538309	2.580980	977.102000
39.831769	2.530385	2.582671	977.601000
39.852838	2.521808	2.584591	978.101000
39.873841	2.513224	2.586364	978.601000
39.894110	2.505114	2.588012	979.101000
39.913395	2.496945	2.589620	979.601000
39.933664	2.489268	2.591259	980.101000
39.955654	2.480069	2.592916	980.601000
39.977113	2.471322	2.594562	981.101000
39.998752	2.464670	2.595997	981.601000
40.019874	2.458071	2.597664	982.101000
40.029828	2.449578	2.599415	982.601000
40.028523	2.440657	2.601341	983.102000
40.027587	2.432207	2.603118	983.601000
40.027811	2.424259	2.604701	984.102000
40.021481	2.416582	2.605955	984.601000
40.002277	2.409760	2.607021	985.101000
39.980575	2.404072	2.607972	985.601000
39.960580	2.398932	2.608802	986.102000
39.943563	2.395593	2.609180	986.601000
39.921979	2.394305	2.609231	987.102000
39.902592	2.394658	2.608813	987.601000
39.884217	2.396085	2.608213	988.101000
39.864781	2.398841	2.607435	988.602000
39.845351	2.402916	2.606473	989.101000
39.825083	2.408706	2.605321	989.602000
39.806145	2.416319	2.604008	990.101000
39.786826	2.424326	2.602727	990.601000
39.768037	2.432616	2.601318	991.101000
39.748095	2.440556	2.599602	991.601000
39.729034	2.448456	2.597959	992.101000
39.710007	2.456254	2.596378	992.601000
39.692163	2.464884	2.595027	993.102000
39.673418	2.473728	2.593608	993.601000
39.656778	2.482958	2.592168	994.101000
39.637538	2.493338	2.590653	994.601000
39.618773	2.504037	2.589194	995.101000
39.598775	2.513785	2.587877	995.601000
39.584086	2.522041	2.586543	996.101000
39.567419	2.528929	2.584969	996.601000
39.550279	2.534481	2.583290	997.102000
39.531423	2.539598	2.581831	997.601000
39.510262	2.544492	2.580485	998.101000
39.489509	2.548603	2.579199	998.602000
39.470097	2.551943	2.577860	999.101000
39.451672	2.555449	2.576620	999.601000
39.432371	2.560055	2.575233	1000.101000
39.413330	2.565116	2.573829	1000.601000
39.393463	2.570820	2.572544	1001.101000
39.375782	2.577023	2.571217	1001.601000
39.356000	2.583148	2.569740	1002.101000
39.338415	2.589146	2.568205	1002.602000
39.316159	2.594047	2.566762	1003.101000
39.296706	2.599726	2.565218	1003.601000
39.276324	2.607011	2.563732	1004.102000
39.257077	2.613587	2.562277	1004.601000
39.236809	2.619222	2.560731	1005.102000
39.217125	2.623824	2.559196	1005.601000
39.195599	2.629762	2.557546	1006.101000
39.177580	2.638892	2.555920	1006.601000
39.158875	2.647649	2.554348	1007.102000
39.141129	2.655577	2.552875	1007.602000
39.120052	2.661826	2.551388	1008.101000
39.110749	2.666619	2.549844	1008.601000
39.091849	2.671202	2.548294	1009.101000
39.072846	2.675435	2.546735	1009.601000
39.054439	2.680776	2.545208	1010.101000
39.033761	2.687340	2.543666	1010.601000
39.014620	2.694070	2.542149	1011.101000
38.995648	2.701336	2.540690	1011.601000
38.973651	2.710045	2.539274	1012.101000
38.954012	2.719367	2.537897	1012.602000
38.935771	2.728725	2.536549	1013.101000
38.916138	2.736790	2.535363	1013.601000
38.899821	2.744034	2.533971	1014.101000
38.878199	2.750889	2.532475	1014.601000
38.859166	2.756768	2.530909	1015.102000
38.840411	2.762174	2.529473	1015.601000
38.820022	2.767647	2.528075	1016.102000
38.801510	2.775254	2.526620	1016.601000
38.783741	2.783463	2.525021	1017.101000
38.765533	2.790508	2.523339	1017.603000
38.745778	2.797671	2.521707	1018.101000
38.725854	2.805528	2.520213	1018.602000
38.705895	2.813033	2.518839	1019.101000
38.687201	2.820136	2.517440	1019.602000
38.668835	2.828153	2.515844	1020.101000
38.649712	2.837149	2.514317	1020.601000
38.631523	2.845117	2.512936	1021.101000
38.614725	2.853509	2.511571	1021.602000
38.598002	2.861867	2.510092	1022.101000
38.579349	2.869499	2.508305	1022.602000
38.559516	2.877236	2.506647	1023.101000
38.538225	2.884510	2.505169	1023.601000
38.518792	2.890231	2.503725	1024.102000
38.500710	2.896820	2.502280	1024.601000
38.480870	2.904364	2.500981	1025.102000
38.459879	2.911900	2.499821	1025.601000
38.438735	2.918892	2.498452	1026.102000
38.418726	2.926945	2.497070	1026.601000
38.399836	2.934482	2.495600	1027.101000
38.380458	2.941178	2.494054	1027.601000
38.357489	2.947542	2.492434	1028.101000
38.336525	2.953792	2.490844	1028.602000
38.321539	2.960063	2.489226	1029.101000
38.304464	2.966506	2.487600	1029.601000
38.287886	2.973498	2.486010	1030.101000
38.267357	2.979539	2.484599	1030.601000
38.246440	2.984302	2.483174	1031.101000
38.227882	2.989729	2.481632	1031.601000
38.208048	2.995516	2.480026	1032.101000
38.192846	3.001261	2.478567	1032.602000
38.172777	3.007116	2.477185	1033.101000
38.156899	3.012246	2.475951	1033.601000
38.140178	3.016817	2.474859	1034.101000
38.125234	3.021534	2.473756	1034.601000
38.104704	3.028592	2.472695	1035.102000
38.088257	3.036138	2.471577	1035.601000
38.068871	3.043437	2.470257	1036.102000
38.049818	3.050629	2.468809	1036.601000
38.028094	3.057360	2.467180	1037.101000
38.009934	3.062976	2.465649	1037.601000
37.991181	3.066715	2.464229	1038.102000
37.974061	3.070832	2.462819	1038.601000
37.954926	3.076998	2.461496	1039.101000
37.936246	3.082144	2.460270	1039.602000
37.915103	3.086703	2.458850	1040.101000
37.896129	3.092083	2.457429	1040.602000
37.878302	3.097179	2.455959	1041.101000
37.858756	3.101074	2.454453	1041.602000
37.837870	3.103952	2.452983	1042.101000
37.819081	3.108255	2.451531	1042.602000
37.800150	3.113605	2.450042	1043.101000
37.782909	3.118243	2.448791	1043.602000
37.759485	3.122188	2.447369	1044.102000
37.736983	3.125911	2.445924	1044.601000
37.721892	3.130542	2.444377	1045.101000
37.705055	3.136119	2.442803	1045.601000
37.686252	3.139934	2.441311	1046.101000
37.665739	3.141699	2.439967	1046.601000
37.647484	3.143299	2.438493	1047.101000
37.625547	3.146016	2.437018	1047.601000
37.607419	3.150581	2.435597	1048.101000
37.590706	3.155031	2.434285	1048.601000
37.572573	3.160599	2.432930	1049.101000
37.554810	3.168125	2.431515	1049.601000
37.535704	3.175092	2.429975	1050.101000
37.518019	3.181101	2.428433	1050.602000
37.498388	3.186178	2.427179	1051.101000
37.478580	3.189786	2.426031	1051.602000
37.459660	3.192064	2.424697	1052.101000
37.443492	3.194329	2.423204	1052.601000
37.423590	3.198305	2.421771	1053.101000
37.404599	3.203533	2.420323	1053.601000
37.383113	3.208147	2.418825	1054.101000
37.365784	3.212257	2.417344	1054.601000
37.346791	3.216343	2.416086	1055.101000
37.325762	3.219631	2.414770	1055.601000
37.306349	3.223072	2.413283	1056.101000
37.289517	3.226878	2.411858	1056.601000
37.270481	3.230296	2.410422	1057.101000
37.251711	3.234044	2.409079	1057.601000
37.230219	3.238607	2.407677	1058.101000
37.215762	3.243861	2.406224	1058.601000
37.197276	3.248937	2.404901	1059.102000
37.179200	3.252317	2.403687	1059.602000
37.160232	3.254968	2.402437	1060.101000
37.144101	3.256952	2.400808	1060.602000
37.123963	3.258401	2.399299	1061.101000
37.103332	3.259922	2.398052	1061.602000
37.085316	3.263392	2.396756	1062.101000
37.065949	3.267477	2.395418	1062.601000
37.046819	3.271724	2.394281	1063.101000
37.029407	3.275858	2.393049	1063.601000
37.010814	3.279397	2.391713	1064.101000
36.989179	3.282842	2.390298	1064.601000
36.969311	3.285632	2.388920	1065.101000
36.951708	3.289605	2.387439	1065.601000
36.933349	3.295332	2.385934	1066.101000
36.913910	3.301648	2.384629	1066.601000
36.893776	3.306397	2.383392	1067.101000
36.874390	3.308807	2.382145	1067.601000
36.856982	3.309948	2.381107	1068.101000
36.838022	3.312430	2.379942	1068.601000
36.815584	3.315737	2.378410	1069.102000
36.796454	3.318614	2.376874	1069.602000
36.779684	3.321548	2.375278	1070.101000
36.760767	3.324659	2.373720	1070.601000
36.739853	3.328699	2.372091	1071.101000
36.722302	3.333672	2.370618	1071.601000
36.701014	3.338622	2.369274	1072.101000
36.682894	3.342579	2.367919	1072.601000
36.666397	3.346483	2.366551	1073.101000
36.648523	3.350440	2.365088	1073.602000
36.625522	3.353315	2.363630	1074.102000
36.613023	3.356613	2.362251	1074.601000
36.595140	3.359791	2.360832	1075.102000
36.576817	3.363430	2.359452	1075.601000
36.558309	3.367832	2.358003	1076.101000
36.538776	3.372156	2.356423	1076.601000
36.520520	3.375463	2.354938	1077.101000
36.500945	3.379548	2.353754	1077.601000
36.481831	3.384761	2.352687	1078.102000
36.463833	3.388232	2.351595	1078.601000
36.441687	3.391753	2.350376	1079.101000
36.420351	3.396566	2.348968	1079.601000
36.401740	3.401180	2.347691	1080.101000
36.381219	3.405612	2.346388	1080.602000
36.363638	3.409945	2.344955	1081.101000
36.346573	3.413121	2.343342	1081.601000
36.326252	3.415143	2.341834	1082.101000
36.304159	3.418403	2.340464	1082.602000
36.287929	3.421713	2.339118	1083.101000
36.270592	3.424929	2.337625	1083.602000
36.247464	3.428894	2.336046	1084.101000
36.230350	3.432580	2.334570	1084.602000
36.208813	3.434294	2.333325	1085.101000
36.189525	3.435831	2.332195	1085.601000
36.172552	3.437516	2.331052	1086.102000
36.154609	3.440804	2.329656	1086.601000
36.136382	3.443093	2.328193	1087.102000
36.117312	3.444464	2.326735	1087.601000
36.097305	3.447007	2.325189	1088.101000
36.081625	3.450189	2.323529	1088.601000
36.062643	3.453690	2.321967	1089.102000
36.045465	3.457509	2.320598	1089.601000
36.027967	3.460152	2.319344	1090.101000
36.011007	3.461285	2.318130	1090.601000
35.993727	3.462853	2.317141	1091.101000
35.969240	3.465279	2.316345	1091.601000
35.950480	3.468486	2.315231	1092.101000
35.934079	3.472198	2.313831	1092.601000
35.911615	3.475904	2.312482	1093.101000
35.891849	3.479130	2.311391	1093.601000
35.873465	3.482185	2.310219	1094.101000
35.854340	3.484751	2.308741	1094.601000
35.838411	3.487126	2.307062	1095.102000
35.819984	3.490346	2.305296	1095.601000
35.802851	3.493727	2.303614	1096.102000
35.786072	3.496754	2.302248	1096.601000
35.764450	3.498669	2.301088	1097.101000
35.743655	3.501001	2.299895	1097.601000
35.726263	3.504496	2.298763	1098.101000
35.707874	3.507618	2.297519	1098.601000
35.687433	3.510070	2.296111	1099.102000
35.669196	3.512022	2.294754	1099.601000
35.652113	3.512830	2.293450	1100.101000
35.631257	3.514921	2.292103	1100.601000
35.612098	3.519605	2.290596	1101.101000
35.594039	3.522934	2.289129	1101.601000
35.575613	3.526265	2.287532	1102.101000
35.556867	3.529797	2.286006	1102.602000
35.538279	3.532610	2.284591	1103.101000
35.519199	3.535807	2.283308	1103.601000
35.500146	3.539585	2.282188	1104.101000
35.484402	3.542697	2.280873	1104.602000
35.463310	3.545047	2.279731	1105.102000
35.440767	3.547715	2.278674	1105.601000
35.422203	3.550269	2.277403	1106.102000
35.404541	3.551751	2.275955	1106.601000
35.383313	3.553452	2.274406	1107.101000
35.363687	3.555432	2.272887	1107.601000
35.342923	3.556960	2.271269	1108.101000
35.325183	3.558487	2.269669	1108.601000
35.306764	3.559608	2.268228	1109.102000
35.290619	3.561125	2.266795	1109.601000
35.269409	3.562977	2.265363	1110.102000
35.252107	3.564968	2.263912	1110.601000
35.232917	3.566226	2.262607	1111.101000
35.215140	3.567935	2.261323	1111.602000
35.197065	3.570549	2.260123	1112.101000
35.176026	3.573832	2.258830	1112.602000
35.156748	3.576648	2.257637	1113.101000
35.138878	3.578830	2.256403	1113.602000
35.114663	3.581187	2.255000	1114.101000
35.097058	3.583275	2.253514	1114.601000
35.075797	3.584524	2.252172	1115.102000
35.055728	3.585031	2.250917	1115.602000
35.033067	3.585862	2.249552	1116.102000
35.013479	3.587658	2.248120	1116.601000
34.998151	3.588807	2.246756	1117.101000
34.976886	3.589717	2.245417	1117.601000
34.958762	3.590373	2.244065	1118.101000
34.939951	3.592543	2.242499	1118.601000
34.920238	3.594603	2.241050	1119.102000
34.899979	3.595944	2.239609	1119.601000
34.879812	3.597571	2.238032	1120.102000
34.858513	3.599816	2.236434	1120.601000
34.839154	3.601474	2.234731	1121.101000
34.814514	3.601623	2.233227	1121.602000
34.793994	3.602031	2.231843	1122.101000
34.776075	3.601380	2.230666	1122.602000
34.755717	3.601941	2.229263	1123.101000
34.738342	3.602722	2.227829	1123.601000
34.722510	3.602184	2.226324	1124.101000
34.704974	3.602140	2.224788	1124.602000
34.686062	3.602561	2.223523	1125.101000
34.666928	3.603437	2.222236	1125.602000
34.648250	3.603921	2.220874	1126.101000
34.628400	3.603194	2.219573	1126.601000
34.603146	3.602629	2.218386	1127.101000
34.587750	3.601703	2.217091	1127.601000
34.570056	3.601124	2.215751	1128.101000
34.550443	3.600774	2.214415	1128.601000
34.527460	3.599646	2.213114	1129.102000
34.509792	3.599503	2.211833	1129.601000
34.487037	3.600810	2.210448	1130.101000
34.470472	3.599471	2.209204	1130.602000
34.451637	3.597074	2.207856	1131.101000
34.432539	3.595824	2.206236	1131.602000
34.415318	3.595531	2.204751	1132.101000
34.397870	3.594258	2.203428	1132.601000
34.378427	3.593249	2.202138	1133.101000
34.355704	3.591866	2.200798	1133.601000
34.336224	3.590567	2.199435	1134.101000
34.318231	3.589494	2.198079	1134.601000
34.299729	3.589064	2.196545	1135.101000
34.280194	3.588266	2.195019	1135.601000
34.262733	3.586354	2.193668	1136.102000
34.243116	3.583440	2.192412	1136.601000
34.224626	3.580920	2.191188	1137.102000
34.204025	3.580074	2.189689	1137.601000
34.189951	3.580482	2.188049	1138.101000
34.169757	3.581243	2.186148	1138.601000
34.148416	3.581431	2.184693	1139.101000
34.130600	3.580282	2.183201	1139.601000
34.110704	3.578531	2.181809	1140.101000
34.087695	3.577846	2.180606	1140.601000
34.068090	3.576271	2.179511	1141.101000
34.053238	3.573306	2.178370	1141.601000
34.034824	3.570675	2.177112	1142.101000
34.011584	3.568748	2.175557	1142.601000
33.992154	3.566592	2.174035	1143.101000
33.977029	3.564817	2.172508	1143.601000
33.954032	3.562482	2.171092	1144.101000
33.932227	3.560271	2.169853	1144.602000
33.913563	3.558623	2.168617	1145.101000
33.892847	3.556649	2.167323	1145.602000
33.873934	3.554181	2.165935	1146.101000
33.856119	3.552163	2.164554	1146.601000
33.839520	3.548768	2.163094	1147.102000
33.823901	3.544720	2.161567	1147.601000
33.807144	3.542519	2.160173	1148.101000
33.784286	3.540624	2.158761	1148.601000
33.767035	3.539730	2.157321	1149.101000
33.750242	3.540061	2.155858	1149.601000
33.732137	3.538761	2.154330	1150.101000
33.710453	3.534552	2.152993	1150.601000
33.688753	3.531035	2.151829	1151.102000
33.672316	3.528046	2.150505	1151.601000
33.653241	3.525234	2.149012	1152.101000
33.631961	3.521907	2.147446	1152.601000
33.613815	3.518249	2.146004	1153.101000
33.594531	3.514062	2.144657	1153.601000
33.575085	3.510193	2.143364	1154.101000
33.559180	3.505535	2.142185	1154.602000
33.540416	3.500774	2.141185	1155.101000
33.519954	3.496310	2.140065	1155.602000
33.499452	3.492122	2.138740	1156.101000
33.481847	3.489449	2.137279	1156.601000
33.461812	3.487056	2.135910	1157.102000
33.441278	3.484439	2.134641	1157.601000
33.420844	3.481242	2.133448	1158.101000
33.400815	3.476095	2.132163	1158.601000
33.380533	3.470155	2.130710	1159.101000
33.358294	3.464191	2.129204	1159.601000
33.338000	3.458944	2.127734	1160.101000
33.312157	3.454185	2.126415	1160.601000
33.293208	3.449212	2.124991	1161.102000
33.277359	3.443950	2.123532	1161.602000
33.259161	3.438907	2.122162	1162.101000
33.240125	3.434093	2.120900	1162.601000
33.220166	3.428541	2.119463	1163.101000
33.197798	3.422386	2.117960	1163.602000
33.177352	3.415452	2.116485	1164.101000
33.159810	3.408511	2.115078	1164.602000
33.141903	3.402326	2.113817	1165.101000
33.123764	3.396264	2.112514	1165.602000
33.105113	3.389938	2.111098	1166.101000
33.085136	3.384091	2.109417	1166.601000
33.064825	3.378395	2.107838	1167.101000
33.047354	3.372989	2.106297	1167.601000
33.028745	3.366213	2.104919	1168.101000
33.006697	3.359774	2.103728	1168.601000
32.985795	3.352955	2.102592	1169.101000
32.968075	3.346219	2.101376	1169.601000
32.949421	3.340254	2.100052	1170.101000
32.930153	3.333813	2.098742	1170.601000
32.911535	3.326024	2.097545	1171.102000
32.891396	3.318074	2.096170	1171.601000
32.872144	3.311667	2.094763	1172.101000
32.851143	3.305506	2.093254	1172.602000
32.833449	3.298976	2.091800	1173.101000
32.814343	3.292244	2.090355	1173.602000
32.796491	3.282713	2.088993	1174.101000
32.779693	3.274594	2.087811	1174.601000
32.757700	3.267108	2.086747	1175.101000
32.739773	3.258160	2.085671	1175.601000
32.720865	3.249692	2.084453	1176.101000
32.699219	3.240556	2.082961	1176.601000
32.682721	3.231043	2.081379	1177.102000
32.662267	3.221410	2.079941	1177.601000
32.646323	3.211106	2.078602	1178.101000
32.623819	3.201620	2.077430	1178.601000
32.604328	3.193283	2.076390	1179.101000
32.580545	3.184582	2.075231	1179.601000
32.570334	3.175531	2.073990	1180.102000
32.549666	3.165096	2.072854	1180.601000
32.532995	3.154801	2.071594	1181.102000
32.513538	3.144680	2.070279	1181.601000
32.495425	3.136228	2.069043	1182.101000
32.480312	3.128241	2.067918	1182.602000
32.462080	3.120143	2.066781	1183.101000
32.441102	3.110508	2.065687	1183.602000
32.417587	3.101377	2.064454	1184.101000
32.402439	3.093216	2.063135	1184.602000
32.385998	3.084860	2.061990	1185.101000
32.368017	3.075859	2.060764	1185.602000
32.349534	3.064479	2.059511	1186.101000
32.329847	3.051320	2.058420	1186.601000
32.309840	3.038835	2.057286	1187.102000
32.289888	3.026748	2.056089	1187.601000
32.270419	3.015131	2.054827	1188.101000
32.256390	3.002214	2.053533	1188.601000
32.237318	2.990359	2.052264	1189.101000
32.212327	2.980376	2.050979	1189.601000
32.191987	2.971957	2.049708	1190.101000
32.181156	2.963946	2.048633	1190.601000
32.164582	2.955571	2.047562	1191.102000
32.143859	2.945320	2.046342	1191.601000
32.126183	2.933044	2.045296	1192.101000
32.109490	2.922280	2.044216	1192.602000
32.092426	2.912049	2.043263	1193.101000
32.068157	2.900712	2.042268	1193.602000
32.053029	2.889770	2.041440	1194.101000
32.035543	2.880616	2.040317	1194.601000
32.015976	2.872448	2.039112	1195.101000
31.994787	2.863454	2.037949	1195.601000
31.976753	2.852517	2.037001	1196.101000
31.958063	2.841301	2.036209	1196.602000
31.939890	2.830637	2.035343	1197.101000
31.914808	2.820629	2.034209	1197.601000
31.897977	2.809132	2.033173	1198.101000
31.877040	2.797505	2.032489	1198.601000
31.855809	2.785164	2.031789	1199.102000
31.834346	2.773646	2.030812	1199.601000
31.822264	2.763781	2.029606	1200.101000
31.803038	2.754046	2.028601	1200.601000
31.775977	2.744787	2.027618	1201.101000
31.758442	2.735602	2.026737	1201.601000
31.744854	2.726252	2.025942	1202.101000
31.727614	2.715638	2.024892	1202.602000
31.709058	2.705845	2.023974	1203.101000
31.688270	2.694926	2.023095	1203.601000
31.669750	2.683138	2.022199	1204.101000
31.651634	2.672655	2.021384	1204.601000
31.629289	2.664510	2.020441	1205.101000
31.609827	2.656878	2.019492	1205.601000
31.590161	2.649184	2.018567	1206.101000
31.570982	2.641093	2.017609	1206.602000
31.551435	2.632478	2.016649	1207.101000
31.532467	2.623396	2.015920	1207.601000
31.511746	2.614685	2.015190	1208.101000
31.491758	2.606101	2.014593	1208.601000
31.472060	2.597655	2.014072	1209.102000
31.453130	2.589309	2.013409	1209.601000
31.432308	2.582369	2.012693	1210.102000
31.411737	2.575173	2.011894	1210.601000
31.395951	2.567808	2.011071	1211.101000
31.376116	2.561065	2.010398	1211.601000
31.351134	2.553193	2.009733	1212.101000
31.334633	2.545846	2.008946	1212.603000
31.313863	2.538890	2.008200	1213.101000
31.295953	2.532512	2.007479	1213.601000
31.276794	2.526416	2.006714	1214.101000
31.260085	2.521615	2.005947	1214.601000
31.243517	2.518141	2.005075	1215.101000
31.223589	2.514388	2.004093	1215.602000
31.200443	2.510446	2.003224	1216.101000
31.181521	2.506441	2.002546	1216.602000
31.160335	2.502629	2.001722	1217.101000
31.137987	2.499408	2.000991	1217.601000
31.117244	2.496896	2.000163	1218.101000
31.101017	2.494850	1.999425	1218.601000
31.083385	2.492772	1.998922	1219.101000
31.065471	2.490706	1.998355	1219.601000
31.045517	2.488675	1.997803	1220.101000
31.023295	2.486314	1.997044	1220.601000
31.008121	2.483489	1.996275	1221.102000
30.990726	2.481667	1.995503	1221.601000
30.970904	2.480428	1.994838	1222.101000
30.951796	2.479625	1.994233	1222.601000
30.931215	2.479186	1.993730	1223.102000
30.913405	2.477793	1.993192	1223.601000
30.894939	2.477177	1.992583	1224.101000
30.875335	2.476968	1.991848	1224.601000
30.854011	2.477132	1.991282	1225.101000
30.833444	2.476833	1.990734	1225.601000
30.816024	2.475798	1.990188	1226.101000
30.797109	2.476279	1.989372	1226.601000
30.778354	2.477412	1.988428	1227.101000
30.758944	2.478527	1.987581	1227.601000
30.738306	2.479735	1.987030	1228.102000
30.719472	2.481682	1.986294	1228.601000
30.701568	2.483756	1.985648	1229.101000
30.678591	2.484840	1.985138	1229.601000
30.660478	2.485532	1.984479	1230.102000
30.643114	2.487040	1.983831	1230.601000
30.624301	2.488894	1.983195	1231.101000
30.604813	2.491474	1.982362	1231.601000
30.588279	2.494400	1.981613	1232.102000
30.570172	2.497576	1.980783	1232.601000
30.551913	2.500367	1.980010	1233.101000
30.530482	2.503317	1.979302	1233.602000
30.511251	2.507069	1.978432	1234.101000
30.492924	2.512023	1.977601	1234.602000
30.474489	2.517406	1.976895	1235.101000
30.455346	2.523017	1.976237	1235.601000
30.434795	2.528616	1.975430	1236.101000
30.416694	2.533403	1.974367	1236.602000
30.398296	2.538103	1.973201	1237.101000
30.374008	2.541324	1.972304	1237.601000
30.354775	2.543285	1.971454	1238.101000
30.337052	2.545822	1.970674	1238.601000
30.318446	2.548949	1.969930	1239.101000
30.298885	2.553726	1.969164	1239.601000
30.278582	2.559626	1.968299	1240.101000
30.259335	2.564758	1.967425	1240.601000
30.241321	2.568807	1.966470	1241.101000
30.219176	2.572887	1.965570	1241.601000
30.200128	2.578860	1.964744	1242.102000
30.180034	2.585770	1.963891	1242.601000
30.162437	2.592189	1.963014	1243.101000
30.144334	2.598898	1.961943	1243.601000
30.128120	2.604320	1.960986	1244.101000
30.106516	2.609720	1.960110	1244.602000
30.086508	2.615189	1.959280	1245.101000
30.069207	2.620878	1.958280	1245.602000
30.047289	2.627521	1.957204	1246.101000
30.027695	2.634072	1.956101	1246.601000
30.009023	2.639777	1.954995	1247.101000
29.989377	2.645981	1.953923	1247.601000
29.964767	2.652546	1.952743	1248.101000
29.945351	2.658618	1.951619	1248.601000
29.925180	2.664375	1.950541	1249.101000
29.907896	2.670258	1.949359	1249.601000
29.888812	2.677112	1.948248	1250.101000
29.863569	2.684233	1.947137	1250.601000
29.842631	2.689822	1.945962	1251.101000
29.831626	2.695424	1.944765	1251.601000
29.806692	2.701209	1.943621	1252.102000
29.789950	2.706668	1.942379	1252.601000
29.775025	2.712638	1.941167	1253.101000
29.760189	2.718041	1.940069	1253.601000
29.738102	2.724063	1.938950	1254.101000
29.715800	2.732272	1.937664	1254.602000
29.696508	2.740888	1.936357	1255.101000
29.678305	2.748138	1.935201	1255.602000
29.661220	2.752825	1.934026	1256.101000
29.647301	2.757888	1.932816	1256.602000
29.625454	2.763381	1.931563	1257.101000
29.604215	2.766851	1.930384	1257.601000
29.584461	2.770130	1.929366	1258.101000
29.569838	2.774844	1.928097	1258.601000
29.547829	2.780916	1.926733	1259.101000
29.530212	2.788173	1.925384	1259.601000
29.510343	2.796013	1.924008	1260.101000
29.493753	2.803034	1.922533	1260.601000
29.473266	2.808697	1.921225	1261.102000
29.454126	2.813614	1.919944	1261.601000
29.435292	2.817949	1.918788	1262.101000
29.416752	2.821887	1.917659	1262.601000
29.392446	2.825066	1.916474	1263.101000
29.379251	2.830257	1.915177	1263.601000
29.358435	2.836770	1.913702	1264.101000
29.335106	2.841495	1.912381	1264.601000
29.322543	2.845014	1.911074	1265.101000
29.303533	2.846930	1.909863	1265.601000
29.279210	2.848898	1.908592	1266.101000
29.264506	2.853123	1.907191	1266.601000
29.244971	2.858309	1.905660	1267.101000
29.226651	2.864070	1.903938	1267.602000
29.206363	2.869814	1.902311	1268.101000
29.183878	2.874688	1.901029	1268.601000
29.165646	2.879155	1.899780	1269.101000
29.144437	2.882878	1.898530	1269.602000
29.119308	2.887271	1.897131	1270.101000
29.100156	2.891150	1.895641	1270.601000
29.086124	2.895346	1.894110	1271.101000
29.066033	2.900412	1.892555	1271.601000
29.048615	2.905211	1.891007	1272.102000
29.029285	2.908899	1.889491	1272.601000
29.010001	2.912430	1.888079	1273.101000
28.985079	2.917057	1.886602	1273.601000
28.966022	2.922948	1.885010	1274.101000
28.951591	2.927522	1.883359	1274.601000
28.928456	2.930260	1.881966	1275.101000
28.907346	2.933631	1.880472	1275.601000
28.883016	2.937249	1.878994	1276.101000
28.861566	2.941721	1.877436	1276.602000
28.850069	2.946484	1.875929	1277.101000
28.833996	2.951194	1.874413	1277.601000
28.805319	2.955460	1.873054	1278.101000
28.786869	2.959854	1.871671	1278.601000
28.767305	2.963973	1.870012	1279.101000
28.746588	2.966682	1.868305	1279.601000
28.726284	2.968642	1.866664	1280.102000
28.712451	2.973422	1.864998	1280.601000
28.693532	2.977250	1.863544	1281.101000
28.670121	2.979653	1.862327	1281.601000
28.650975	2.981128	1.861202	1282.101000
28.631231	2.982811	1.859874	1282.601000
28.616132	2.985054	1.858328	1283.101000
28.597928	2.988096	1.856802	1283.601000
28.574960	2.990603	1.855235	1284.101000
28.558816	2.993053	1.853754	1284.601000
28.540232	2.994979	1.852240	1285.101000
28.520988	2.997779	1.850723	1285.601000
28.502232	3.000821	1.849259	1286.101000
28.485062	3.003799	1.847806	1286.602000
28.463589	3.007356	1.846340	1287.101000
28.443450	3.011800	1.844787	1287.601000
28.423538	3.015701	1.843161	1288.101000
28.396661	3.017989	1.841489	1288.601000
28.374878	3.020365	1.839990	1289.101000
28.358295	3.022259	1.838528	1289.601000
28.346112	3.024363	1.837020	1290.101000
28.327572	3.024851	1.835515	1290.601000
28.303327	3.024955	1.834106	1291.101000
28.285006	3.025621	1.832716	1291.601000
28.266271	3.027165	1.831266	1292.101000
28.252233	3.028442	1.829849	1292.601000
28.233923	3.029669	1.828543	1293.101000
28.212411	3.032047	1.827087	1293.601000
28.193539	3.034773	1.825532	1294.101000
28.175592	3.037405	1.824140	1294.601000
28.157683	3.039514	1.822808	1295.101000
28.139507	3.042770	1.821310	1295.601000
28.117991	3.045191	1.819863	1296.101000
28.089730	3.047171	1.818376	1296.602000
28.075951	3.048947	1.816902	1297.101000
28.059638	3.049356	1.815305	1297.602000
28.042749	3.050145	1.813916	1298.101000
28.022339	3.051452	1.812482	1298.601000
28.000955	3.053940	1.811022	1299.101000
27.981366	3.056357	1.809439	1299.601000
27.963226	3.057358	1.807885	1300.101000
27.942463	3.058406	1.806353	1300.601000
27.924764	3.059921	1.804757	1301.101000
27.904861	3.061442	1.803159	1301.601000
27.883554	3.063367	1.801634	1302.101000
27.862448	3.063343	1.800220	1302.601000
27.845541	3.062997	1.798719	1303.102000
27.828306	3.063777	1.797268	1303.601000
27.809886	3.064472	1.795843	1304.102000
27.786518	3.064846	1.794374	1304.601000
27.765596	3.065610	1.792894	1305.102000
27.750961	3.067301	1.791515	1305.601000
27.734039	3.069035	1.790001	1306.101000
27.714169	3.070471	1.788688	1306.602000
27.697234	3.071138	1.787160	1307.101000
27.678147	3.072281	1.785755	1307.602000
27.655103	3.073027	1.784546	1308.101000
27.635818	3.073674	1.783076	1308.601000
27.622183	3.074962	1.781596	1309.101000
27.603015	3.073982	1.780305	1309.601000
27.581400	3.073402	1.778793	1310.101000
27.560040	3.075771	1.777062	1310.601000
27.541523	3.079068	1.775394	1311.101000
27.519625	3.080136	1.773783	1311.601000
27.501176	3.080923	1.772141	1312.101000
27.483465	3.082103	1.770487	1312.601000
27.467120	3.081984	1.769008	1313.102000
27.450194	3.081559	1.767554	1313.601000
27.424124	3.081918	1.766021	1314.101000
27.403705	3.084401	1.764579	1314.601000
27.382870	3.085378	1.763406	1315.101000
27.362690	3.084134	1.762254	1315.602000
27.344678	3.083983	1.761085	1316.101000
27.325543	3.083338	1.759735	1316.602000
27.306223	3.082079	1.758182	1317.101000
27.289993	3.080681	1.756595	1317.602000
27.266892	3.080394	1.755126	1318.101000
27.247804	3.081215	1.753570	1318.602000
27.229578	3.081089	1.752040	1319.101000
27.210580	3.080131	1.750488	1319.601000
27.186050	3.079111	1.749113	1320.101000
27.170847	3.078231	1.747718	1320.601000
27.153352	3.077143	1.746324	1321.101000
27.130057	3.075831	1.744987	1321.601000
27.110106	3.074520	1.743618	1322.102000
27.090592	3.074820	1.742097	1322.601000
27.073453	3.074386	1.740488	1323.102000
27.048381	3.073264	1.739100	1323.601000
27.026718	3.072538	1.737673	1324.101000
27.004825	3.071495	1.736259	1324.601000
26.986987	3.070765	1.734696	1325.102000
26.969270	3.070060	1.733167	1325.602000
26.955745	3.068134	1.731563	1326.101000
26.934507	3.066203	1.729849	1326.601000
26.907129	3.066322	1.728162	1327.101000
26.894535	3.066599	1.726556	1327.601000
26.875490	3.065487	1.725198	1328.101000
26.857330	3.064323	1.723800	1328.601000
26.828888	3.061986	1.722575	1329.101000
26.816822	3.060087	1.720984	1329.602000
26.795060	3.059741	1.719350	1330.101000
26.780283	3.059400	1.717801	1330.601000
26.757864	3.058528	1.716199	1331.102000
26.743175	3.056894	1.714680	1331.601000
26.723991	3.054600	1.713460	1332.102000
26.705281	3.051244	1.712321	1332.601000
26.680731	3.049177	1.710860	1333.101000
26.663525	3.046812	1.709399	1333.601000
26.643982	3.044293	1.708080	1334.101000
26.620831	3.041959	1.706707	1334.601000
26.601315	3.040607	1.705151	1335.101000
26.576595	3.038665	1.703745	1335.601000
26.568378	3.036674	1.702388	1336.101000
26.547729	3.033663	1.701110	1336.601000
26.525375	3.030059	1.699886	1337.101000
26.509093	3.026189	1.698584	1337.601000
26.491830	3.022797	1.697123	1338.101000
26.474585	3.019191	1.695636	1338.601000
26.456625	3.016870	1.694269	1339.101000
26.437357	3.014720	1.692818	1339.601000
26.414182	3.012624	1.691341	1340.101000
26.395523	3.009187	1.689908	1340.601000
26.376023	3.003726	1.688463	1341.102000
26.355920	2.999136	1.686960	1341.601000
26.327353	2.995678	1.685426	1342.101000
26.310950	2.992540	1.684141	1342.601000
26.291022	2.988824	1.682916	1343.101000
26.270377	2.985192	1.681499	1343.601000
26.257227	2.983736	1.680027	1344.101000
26.240823	2.981170	1.678548	1344.601000
26.223065	2.978379	1.677107	1345.101000
26.204748	2.974694	1.675735	1345.601000
26.186329	2.970260	1.674396	1346.101000
26.166488	2.965713	1.672961	1346.601000
26.147241	2.961299	1.671665	1347.101000
26.128635	2.958648	1.670565	1347.601000
26.109933	2.955881	1.669382	1348.101000
26.089066	2.952065	1.668010	1348.602000
26.071898	2.947044	1.666481	1349.101000
26.054367	2.942035	1.665039	1349.601000
26.034821	2.937978	1.663601	1350.101000
26.015967	2.934441	1.662106	1350.601000
25.996483	2.930860	1.660706	1351.101000
25.975331	2.925915	1.659226	1351.601000
25.954592	2.919866	1.657715	1352.102000
25.935745	2.913188	1.656471	1352.601000
25.917374	2.906169	1.655249	1353.101000
25.900424	2.899558	1.653831	1353.601000
25.882455	2.894324	1.652439	1354.101000
25.864227	2.889909	1.650989	1354.601000
25.840948	2.885599	1.649536	1355.101000
25.821665	2.880596	1.648206	1355.601000
25.804292	2.874553	1.646839	1356.101000
25.784482	2.867998	1.645422	1356.601000
25.763926	2.862189	1.644043	1357.101000
25.744263	2.856627	1.642751	1357.602000
25.725918	2.849678	1.641384	1358.101000
25.704718	2.841455	1.639894	1358.602000
25.686685	2.834205	1.638347	1359.101000
25.666653	2.828433	1.636898	1359.601000
25.648909	2.822656	1.635526	1360.101000
25.628683	2.815988	1.634300	1360.601000
25.610895	2.809879	1.632932	1361.101000
25.593367	2.803006	1.631532	1361.601000
25.575223	2.794782	1.629896	1362.101000
25.556671	2.787421	1.628280	1362.601000
25.536202	2.780331	1.626973	1363.102000
25.517903	2.772051	1.625781	1363.601000
25.496976	2.762574	1.624627	1364.101000
25.475842	2.754657	1.623276	1364.601000
25.457874	2.747448	1.621667	1365.101000
25.442206	2.740194	1.620037	1365.601000
25.421402	2.731233	1.618758	1366.101000
25.405184	2.721794	1.617663	1366.602000
25.383377	2.714369	1.616411	1367.101000
25.361642	2.708120	1.615148	1367.601000
25.341696	2.700284	1.613909	1368.101000
25.323294	2.690997	1.612508	1368.601000
25.305878	2.681034	1.611007	1369.101000
25.287222	2.670818	1.609482	1369.601000
25.266826	2.660177	1.608138	1370.101000
25.246805	2.649576	1.606812	1370.601000
25.229496	2.639686	1.605642	1371.101000
25.209452	2.629518	1.604312	1371.601000
25.190163	2.619031	1.602823	1372.101000
25.170657	2.608022	1.601226	1372.601000
25.154364	2.597915	1.599717	1373.101000
25.132611	2.589134	1.598240	1373.601000
25.116515	2.579166	1.596769	1374.102000
25.094650	2.568065	1.595540	1374.601000
25.076959	2.556529	1.594363	1375.101000
25.056542	2.544761	1.593066	1375.601000
25.037505	2.533268	1.591676	1376.101000
25.018934	2.522951	1.590044	1376.601000
25.001473	2.511517	1.588565	1377.101000
24.979417	2.498049	1.587162	1377.602000
24.956994	2.482943	1.585910	1378.101000
24.936481	2.468504	1.584575	1378.601000
24.918906	2.454277	1.583116	1379.101000
24.899606	2.439800	1.581643	1379.601000
24.879723	2.424598	1.580273	1380.101000
24.856598	2.409744	1.578814	1380.601000
24.836537	2.395034	1.577554	1381.101000
24.821513	2.380921	1.576292	1381.602000
24.804048	2.365182	1.574929	1382.101000
24.784937	2.349137	1.573649	1382.601000
24.768069	2.333800	1.572288	1383.102000
24.752113	2.316589	1.570943	1383.601000
24.732053	2.297365	1.569795	1384.101000
24.714457	2.278559	1.568604	1384.601000
24.692764	2.262051	1.567227	1385.102000
24.674371	2.246207	1.565873	1385.601000
24.655612	2.230344	1.564684	1386.101000
24.635170	2.213376	1.563628	1386.601000
24.618207	2.195087	1.562430	1387.101000
24.591250	2.175127	1.561030	1387.602000
24.573375	2.154524	1.559702	1388.101000
24.556775	2.133745	1.558477	1388.601000
24.538626	2.113685	1.557213	1389.101000
24.517414	2.092287	1.555962	1389.601000
24.491811	2.069024	1.554555	1390.101000
24.474896	2.046426	1.553079	1390.601000
24.456274	2.023224	1.551710	1391.101000
24.442214	1.998320	1.550407	1391.601000
24.421022	1.972645	1.549386	1392.102000
24.400421	1.946661	1.548141	1392.601000
24.376913	1.919252	1.547048	1393.101000
24.355841	1.890815	1.545959	1393.601000
24.340848	1.864178	1.544674	1394.102000
24.321579	1.836932	1.543450	1394.601000
24.302452	1.808741	1.542072	1395.101000
24.282889	1.780301	1.540781	1395.601000
24.267475	1.751760	1.539831	1396.102000
24.248609	1.723598	1.538926	1396.601000
24.230908	1.695616	1.537898	1397.101000
24.211035	1.666620	1.536812	1397.601000
24.191571	1.637234	1.535743	1398.101000
24.170560	1.605789	1.534814	1398.601000
24.152692	1.572486	1.533683	1399.101000
24.133740	1.538741	1.532574	1399.601000
24.108050	1.506047	1.531666	1400.101000
24.081741	1.473455	1.530579	1400.601000
24.068310	1.439616	1.529677	1401.101000
24.049906	1.404550	1.528731	1401.601000
24.028648	1.369663	1.527745	1402.101000
24.002374	1.334184	1.526810	1402.601000
23.985596	1.298160	1.525947	1403.101000
23.965634	1.262708	1.524992	1403.601000
23.946024	1.227450	1.524188	1404.101000
23.932532	1.191612	1.523376	1404.601000
23.916352	1.155843	1.522451	1405.102000
23.893752	1.120168	1.521734	1405.601000
23.876804	1.084652	1.521062	1406.102000
23.856688	1.050247	1.520538	1406.601000
23.839336	1.017342	1.520025	1407.101000
23.822131	0.985111	1.519575	1407.602000
23.802908	0.953361	1.519345	1408.101000
23.779776	0.921181	1.519061	1408.601000
23.765596	0.889920	1.518778	1409.101000
23.745466	0.860689	1.518592	1409.602000
23.723141	0.832564	1.518359	1410.101000
23.702841	0.804992	1.518183	1410.601000
23.684234	0.776525	1.518003	1411.101000
23.667909	0.748656	1.517686	1411.601000
23.645292	0.722723	1.517449	1412.101000
23.624184	0.698862	1.517300	1412.601000
23.604259	0.674855	1.517413	1413.102000
23.589895	0.650304	1.517634	1413.601000
23.569292	0.626877	1.517667	1414.102000
23.547832	0.606613	1.517789	1414.601000
23.527474	0.586525	1.518006	1415.101000
23.506542	0.565740	1.518072	1415.601000
23.492072	0.546145	1.518002	1416.101000
23.469938	0.528131	1.518032	1416.601000
23.452000	0.511477	1.518112	1417.101000
23.433470	0.495351	1.518197	1417.601000
23.416214	0.480276	1.518282	1418.101000
23.399983	0.466910	1.518242	1418.602000
23.382247	0.453726	1.518317	1419.101000
23.360996	0.441227	1.518425	1419.602000
23.343367	0.428444	1.518577	1420.101000
23.322332	0.415449	1.518885	1420.601000
23.303938	0.403750	1.519006	1421.101000
23.286307	0.392669	1.519149	1421.601000
23.274369	0.381049	1.519216	1422.101000
23.252832	0.371052	1.519218	1422.601000
23.237336	0.363252	1.519146	1423.102000
23.216507	0.356269	1.519194	1423.601000
23.196393	0.347034	1.519518	1424.101000
23.179374	0.337010	1.519686	1424.601000
23.161656	0.328185	1.519757	1425.101000
23.141910	0.320551	1.519870	1425.601000
23.124770	0.313313	1.519818	1426.101000
23.102485	0.304682	1.519952	1426.601000
23.084451	0.295955	1.520129	1427.102000
23.064806	0.288717	1.520283	1427.601000
23.045206	0.282907	1.520327	1428.101000
23.028102	0.277680	1.520041	1428.602000
23.003058	0.272269	1.519840	1429.101000
22.990118	0.268068	1.519596	1429.602000
22.966290	0.264106	1.519454	1430.101000
22.945513	0.258807	1.519502	1430.602000
22.931316	0.253680	1.519443	1431.101000
22.915074	0.247282	1.519600	1431.601000
22.889713	0.242233	1.519716	1432.101000
22.872334	0.238900	1.519745	1432.601000
22.854584	0.235498	1.519881	1433.101000
22.841105	0.232153	1.519980	1433.601000
22.822792	0.230039	1.520059	1434.101000
22.802524	0.228162	1.520149	1434.601000
22.781123	0.227867	1.519982	1435.102000
22.765976	0.227727	1.519822	1435.601000
22.743656	0.228531	1.519824	1436.101000
22.722312	0.228654	1.519840	1436.601000
22.705447	0.228133	1.519751	1437.101000
22.685795	0.228565	1.519856	1437.601000
22.671013	0.229928	1.520047	1438.102000
22.647351	0.231641	1.520161	1438.602000
22.626192	0.233429	1.520252	1439.101000
22.608178	0.237626	1.520433	1439.601000
22.590856	0.245044	1.520493	1440.101000
22.568981	0.253982	1.520429	1440.601000
22.545870	0.262203	1.520484	1441.101000
22.522996	0.270235	1.520551	1441.601000
22.505647	0.279563	1.520608	1442.101000
22.488376	0.290495	1.520631	1442.602000
22.467418	0.301755	1.520633	1443.101000
22.444170	0.313748	1.520635	1443.601000
22.425173	0.328205	1.520620	1444.101000
22.403904	0.344270	1.520473	1444.601000
22.374527	0.361162	1.520197	1445.102000
22.353477	0.379519	1.519907	1445.601000
22.338931	0.399689	1.519774	1446.101000
22.318798	0.421088	1.519387	1446.601000
22.295571	0.442861	1.519042	1447.102000
22.283197	0.464761	1.518825	1447.601000
22.259726	0.487811	1.518469	1448.101000
22.236260	0.510632	1.518167	1448.601000
22.216928	0.532913	1.517810	1449.101000
22.209074	0.555429	1.517287	1449.601000
22.187336	0.579265	1.516629	1450.101000
22.165036	0.602744	1.516003	1450.601000
22.141396	0.626711	1.515177	1451.101000
22.120350	0.650080	1.514261	1451.601000
22.105759	0.673812	1.513399	1452.101000
22.087821	0.697820	1.512474	1452.602000
22.072393	0.721875	1.511405	1453.101000
22.052026	0.745705	1.510217	1453.601000
22.037461	0.770089	1.508925	1454.102000
22.023125	0.792624	1.507576	1454.601000
22.000585	0.813262	1.506464	1455.101000
21.980827	0.833255	1.505350	1455.601000
21.959938	0.854452	1.504228	1456.101000
21.940396	0.875745	1.502899	1456.601000
21.922372	0.897631	1.501443	1457.101000
21.904108	0.919659	1.499948	1457.601000
21.881905	0.940879	1.498341	1458.101000
21.862781	0.960659	1.496740	1458.601000
21.843751	0.980162	1.495115	1459.101000
21.826187	1.000502	1.493496	1459.601000
21.809182	1.021176	1.491771	1460.101000
21.792313	1.041690	1.489981	1460.601000
21.774197	1.060390	1.488301	1461.101000
21.753405	1.078461	1.486406	1461.601000
21.739096	1.097010	1.484492	1462.101000
21.719835	1.115592	1.482522	1462.601000
21.700671	1.134019	1.480733	1463.101000
21.683986	1.151622	1.478903	1463.601000
21.661246	1.168667	1.477064	1464.102000
21.636409	1.185024	1.475216	1464.601000
21.617189	1.200803	1.473442	1465.102000
21.603694	1.215702	1.471623	1465.601000
21.585759	1.229681	1.469645	1466.101000
21.561498	1.243237	1.467633	1466.601000
21.544521	1.257125	1.465574	1467.101000
21.525464	1.271189	1.463374	1467.601000
21.511944	1.285038	1.461350	1468.102000
21.495278	1.298505	1.459434	1468.601000
21.470180	1.311076	1.457459	1469.101000
21.454635	1.321893	1.455389	1469.601000
21.440786	1.332417	1.453134	1470.101000
21.423927	1.344667	1.451055	1470.602000
21.405418	1.356330	1.448995	1471.101000
21.385010	1.366866	1.446950	1471.601000
21.361861	1.376729	1.444867	1472.101000
21.340665	1.386174	1.442761	1472.601000
21.327277	1.396492	1.440801	1473.101000
21.308903	1.406054	1.438780	1473.601000
21.290792	1.415700	1.436867	1474.101000
21.270728	1.424702	1.434919	1474.601000
21.251585	1.433441	1.432862	1475.101000
21.228134	1.441840	1.430840	1475.601000
21.211081	1.450857	1.428889	1476.101000
21.189529	1.460261	1.426948	1476.601000
21.170303	1.469554	1.424939	1477.101000
21.152012	1.478105	1.422941	1477.601000
21.133703	1.487381	1.420879	1478.101000
21.117119	1.495822	1.418779	1478.601000
21.092329	1.504675	1.416973	1479.101000
21.077753	1.513310	1.415015	1479.601000
21.059682	1.521385	1.412999	1480.101000
21.038660	1.528054	1.410948	1480.602000
21.019408	1.535141	1.409100	1481.101000
20.994172	1.544141	1.407277	1481.601000
20.977814	1.553241	1.405226	1482.101000
20.965515	1.561802	1.403182	1482.601000
20.948662	1.571427	1.401313	1483.101000
20.930245	1.579336	1.399330	1483.601000
20.910733	1.586849	1.397410	1484.101000
20.892605	1.594406	1.395408	1484.601000
20.872161	1.602676	1.393436	1485.101000
20.856704	1.611495	1.391437	1485.601000
20.840956	1.620748	1.389680	1486.102000
20.821175	1.629572	1.388125	1486.601000
20.802386	1.637938	1.386563	1487.102000
20.783065	1.646607	1.384841	1487.601000
20.764980	1.654541	1.383086	1488.101000
20.745168	1.662635	1.381386	1488.601000
20.723261	1.670294	1.379660	1489.102000
20.702780	1.678469	1.377819	1489.602000
20.683840	1.686633	1.375861	1490.101000
20.666121	1.695656	1.374023	1490.602000
20.650779	1.705237	1.372143	1491.101000
20.629761	1.713621	1.370470	1491.601000
20.609624	1.720933	1.368693	1492.101000
20.594573	1.727967	1.367021	1492.601000
20.576683	1.737537	1.365185	1493.101000
20.557891	1.748050	1.363263	1493.601000
20.539274	1.757813	1.361447	1494.101000
20.521193	1.766234	1.359665	1494.601000
20.500236	1.774314	1.357869	1495.101000
20.480127	1.782096	1.356090	1495.601000
20.460690	1.790135	1.354397	1496.101000
20.438026	1.796572	1.352826	1496.601000
20.419963	1.804472	1.351164	1497.101000
20.403848	1.813715	1.349574	1497.601000
20.385834	1.822411	1.347905	1498.101000
20.365031	1.830446	1.346223	1498.601000
20.348731	1.837914	1.344628	1499.101000
20.326723	1.845827	1.342861	1499.601000
20.310358	1.852987	1.341137	1500.101000
20.286986	1.859895	1.339460	1500.601000
20.271362	1.865716	1.337702	1501.101000
20.254444	1.872255	1.336082	1501.601000
20.234512	1.879010	1.334479	1502.101000
20.211996	1.886149	1.332808	1502.601000
20.194285	1.892979	1.331193	1503.101000
20.176915	1.899616	1.329604	1503.601000
20.158928	1.906969	1.327876	1504.101000
20.138391	1.913888	1.326285	1504.601000
20.116782	1.918633	1.324730	1505.101000
20.096210	1.922087	1.323079	1505.601000
20.076964	1.926607	1.321472	1506.102000
20.058711	1.932725	1.319917	1506.601000
20.038692	1.938886	1.318358	1507.101000
20.020469	1.944819	1.316793	1507.601000
19.998526	1.950915	1.315093	1508.101000
19.976217	1.955251	1.313547	1508.601000
19.954347	1.958909	1.311839	1509.101000
19.942272	1.963960	1.310194	1509.601000
19.925330	1.968475	1.308648	1510.101000
19.903028	1.970943	1.306992	1510.601000
19.883227	1.974022	1.305420	1511.101000
19.871040	1.978310	1.304076	1511.601000
19.853528	1.983315	1.302728	1512.101000
19.830789	1.987384	1.301188	1512.601000
19.808725	1.991420	1.299623	1513.101000
19.793747	1.995339	1.298081	1513.601000
19.775167	1.998447	1.296712	1514.101000
19.756806	2.001124	1.295443	1514.601000
19.738815	2.002935	1.294179	1515.101000
19.720822	2.003788	1.292682	1515.601000
19.698930	2.004619	1.290920	1516.102000
19.677204	2.006652	1.289296	1516.601000
19.658326	2.008990	1.287588	1517.101000
19.637698	2.011553	1.286106	1517.601000
19.620809	2.014092	1.284722	1518.101000
19.594084	2.015715	1.283371	1518.601000
19.580737	2.017566	1.282057	1519.101000
19.560912	2.020309	1.280668	1519.601000
19.538290	2.022242	1.279240	1520.101000
19.514353	2.023027	1.277557	1520.601000
19.496247	2.023721	1.275921	1521.101000
19.477440	2.025869	1.274344	1521.602000
19.462224	2.028745	1.272869	1522.101000
19.444569	2.030408	1.271393	1522.601000
19.427386	2.031477	1.269969	1523.101000
19.401091	2.032658	1.268568	1523.601000
19.386880	2.033248	1.267111	1524.101000
19.368826	2.033526	1.265599	1524.601000
19.345203	2.033792	1.264190	1525.101000
19.319281	2.034174	1.262820	1525.602000
19.300571	2.033242	1.261514	1526.102000
19.282670	2.032071	1.260002	1526.601000
19.266396	2.031720	1.258496	1527.101000
19.248765	2.032440	1.257049	1527.601000
19.228019	2.033715	1.255616	1528.101000
19.206701	2.033610	1.254155	1528.601000
19.185590	2.033740	1.252657	1529.101000
19.166340	2.033276	1.251362	1529.601000
19.148077	2.031995	1.250037	1530.101000
19.126904	2.030414	1.248584	1530.601000
19.107059	2.030207	1.247210	1531.102000
19.086969	2.030851	1.245771	1531.601000
19.066900	2.030835	1.244335	1532.101000
19.046908	2.029551	1.243049	1532.601000
19.026112	2.026720	1.241699	1533.101000
19.006110	2.025054	1.240388	1533.601000
18.988391	2.022893	1.239107	1534.101000
18.968491	2.020742	1.237916	1534.601000
18.950229	2.017667	1.236601	1535.101000
18.929908	2.016248	1.235251	1535.602000
18.909335	2.015126	1.233771	1536.101000
18.892946	2.015167	1.232411	1536.601000
18.875470	2.015998	1.231096	1537.101000
18.855678	2.015235	1.229669	1537.601000
18.834355	2.013620	1.228401	1538.101000
18.813843	2.011685	1.227283	1538.601000
18.797037	2.010247	1.226046	1539.101000
18.777081	2.008163	1.224799	1539.601000
18.756901	2.007282	1.223425	1540.102000
18.738671	2.005125	1.222106	1540.601000
18.719293	2.001527	1.220785	1541.101000
18.701850	1.999118	1.219332	1541.602000
18.683464	1.997327	1.217846	1542.101000
18.665234	1.996844	1.216493	1542.601000
18.644001	1.996439	1.215352	1543.101000
18.624125	1.995864	1.214186	1543.601000
18.604179	1.994224	1.213051	1544.101000
18.584872	1.992862	1.212057	1544.601000
18.565021	1.992313	1.210915	1545.101000
18.547774	1.990625	1.209674	1545.602000
18.529533	1.988235	1.208469	1546.102000
18.512070	1.985316	1.207274	1546.601000
18.495064	1.982652	1.206014	1547.101000
18.472828	1.980591	1.204666	1547.601000
18.451656	1.979403	1.203388	1548.101000
18.433967	1.978703	1.202107	1548.601000
18.413673	1.977873	1.200764	1549.102000
18.395192	1.978313	1.199503	1549.601000
18.376510	1.977311	1.198229	1550.102000
18.355207	1.975999	1.196996	1550.601000
18.336987	1.974450	1.195819	1551.101000
18.316547	1.973029	1.194582	1551.602000
18.297189	1.972145	1.193154	1552.101000
18.282901	1.970949	1.191858	1552.601000
18.265896	1.969360	1.190522	1553.101000
18.245903	1.967894	1.189351	1553.601000
18.224847	1.966568	1.188298	1554.101000
18.207660	1.964866	1.187168	1554.601000
18.188974	1.962189	1.186109	1555.101000
18.168030	1.958935	1.185124	1555.601000
18.148605	1.956972	1.184098	1556.101000
18.128438	1.956247	1.182902	1556.601000
18.108082	1.956898	1.181678	1557.101000
18.089782	1.956947	1.180340	1557.601000
18.074615	1.956515	1.179038	1558.102000
18.060826	1.956631	1.177701	1558.601000
18.039374	1.956006	1.176573	1559.101000
18.016260	1.954383	1.175334	1559.601000
17.999542	1.951949	1.174024	1560.102000
17.983727	1.949948	1.172695	1560.601000
17.965442	1.948049	1.171304	1561.101000
17.944394	1.946451	1.170124	1561.602000
17.920261	1.943146	1.169100	1562.102000
17.903383	1.940459	1.167978	1562.601000
17.886041	1.938320	1.166712	1563.101000
17.869922	1.937240	1.165582	1563.601000
17.851126	1.935707	1.164452	1564.101000
17.826630	1.934385	1.163241	1564.601000
17.807214	1.932518	1.161965	1565.101000
17.786609	1.931261	1.160647	1565.601000
17.766372	1.929184	1.159302	1566.101000
17.748121	1.926845	1.157913	1566.601000
17.730619	1.923419	1.156518	1567.102000
17.712739	1.920695	1.155343	1567.601000
17.696299	1.918947	1.154230	1568.101000
17.674116	1.917310	1.153125	1568.601000
17.649225	1.915495	1.151801	1569.101000
17.630087	1.913384	1.150209	1569.601000
17.614069	1.911187	1.148607	1570.101000
17.594061	1.908935	1.147312	1570.601000
17.577631	1.906555	1.146163	1571.101000
17.553613	1.905485	1.144901	1571.601000
17.532699	1.905310	1.143631	1572.101000
17.514486	1.903131	1.142267	1572.601000
17.499876	1.900856	1.140948	1573.101000
17.482104	1.897898	1.139862	1573.601000
17.458884	1.893225	1.138758	1574.101000
17.436566	1.887384	1.137594	1574.601000
17.418039	1.882520	1.136225	1575.101000
17.397595	1.880313	1.134857	1575.601000
17.385751	1.878028	1.133459	1576.101000
17.361968	1.874666	1.132039	1576.601000
17.344065	1.870433	1.130619	1577.102000
17.323767	1.865950	1.129072	1577.601000
17.307816	1.862309	1.127660	1578.101000
17.290100	1.858763	1.126364	1578.601000
17.271753	1.854527	1.125034	1579.101000
17.248578	1.849879	1.123905	1579.601000
17.234445	1.844887	1.122660	1580.101000
17.217593	1.840302	1.121299	1580.601000
17.196158	1.836859	1.119811	1581.101000
17.174111	1.832917	1.118474	1581.601000
17.151900	1.827900	1.117210	1582.101000
17.138776	1.821312	1.115835	1582.601000
17.121547	1.815060	1.114367	1583.101000
17.096407	1.810338	1.112840	1583.602000
17.074392	1.804297	1.111437	1584.101000
17.061751	1.798390	1.110170	1584.602000
17.042939	1.791620	1.108998	1585.101000
17.020599	1.785248	1.107716	1585.601000
17.001291	1.779331	1.106286	1586.101000
16.980429	1.772483	1.104884	1586.601000
16.966390	1.765369	1.103437	1587.101000
16.948371	1.757581	1.101997	1587.601000
16.924472	1.750148	1.100722	1588.101000
16.909744	1.742360	1.099453	1588.601000
16.891333	1.734713	1.098190	1589.101000
16.878513	1.727276	1.096920	1589.601000
16.855722	1.721013	1.095534	1590.101000
16.836688	1.714969	1.094101	1590.601000
16.815115	1.707818	1.092741	1591.101000
16.797712	1.699348	1.091435	1591.601000
16.774400	1.690283	1.090290	1592.101000
16.755736	1.680710	1.089068	1592.601000
16.740181	1.671831	1.087740	1593.101000
16.729264	1.662218	1.086403	1593.602000
16.707662	1.653212	1.085188	1594.101000
16.691986	1.644842	1.084076	1594.601000
16.682666	1.636482	1.082961	1595.101000
16.664444	1.627938	1.081973	1595.601000
16.637368	1.619641	1.080992	1596.101000
16.625361	1.610050	1.080011	1596.601000
16.609288	1.599676	1.078731	1597.101000
16.583733	1.589264	1.077290	1597.602000
16.564767	1.578556	1.075900	1598.102000
16.545619	1.567897	1.074598	1598.601000
16.529825	1.556824	1.073223	1599.101000
16.507306	1.544653	1.072004	1599.601000
16.489124	1.531814	1.070789	1600.101000
16.471269	1.518078	1.069514	1600.601000
16.448299	1.504015	1.068186	1601.102000
16.430615	1.489818	1.066841	1601.601000
16.410936	1.476010	1.065693	1602.101000
16.388685	1.462517	1.064376	1602.601000
16.374226	1.448419	1.062914	1603.101000
16.352460	1.432904	1.061585	1603.601000
16.326813	1.416354	1.060364	1604.101000
16.310439	1.399774	1.059132	1604.602000
16.294849	1.381149	1.057943	1605.101000
16.279474	1.363094	1.056687	1605.601000
16.259643	1.345812	1.055513	1606.101000
16.234589	1.329897	1.054284	1606.601000
16.221956	1.314422	1.053070	1607.101000
16.203221	1.298376	1.051924	1607.602000
16.185545	1.280888	1.050768	1608.101000
16.163153	1.262855	1.049625	1608.601000
16.146863	1.244364	1.048500	1609.101000
16.128616	1.224643	1.047433	1609.601000
16.107839	1.205582	1.046234	1610.102000
16.090309	1.185878	1.044984	1610.601000
16.073015	1.164489	1.043864	1611.102000
16.055515	1.141806	1.042960	1611.601000
16.039804	1.120563	1.042018	1612.101000
16.020389	1.099894	1.041017	1612.601000
15.994302	1.079579	1.039732	1613.101000
15.978311	1.058992	1.038462	1613.601000
15.961191	1.036368	1.037191	1614.101000
15.937199	1.011763	1.036189	1614.602000
15.925964	0.985608	1.035296	1615.101000
15.900311	0.959796	1.034245	1615.601000
15.889018	0.933766	1.033116	1616.101000
15.871342	0.906447	1.032076	1616.601000
15.847134	0.879313	1.031075	1617.101000
15.834827	0.853104	1.030112	1617.601000
15.807877	0.826349	1.029095	1618.101000
15.788345	0.798993	1.028095	1618.601000
15.773782	0.771507	1.027204	1619.101000
15.755630	0.743609	1.026469	1619.601000
15.735474	0.715824	1.025999	1620.101000
15.716819	0.687932	1.025354	1620.601000
15.695522	0.661475	1.024586	1621.102000
15.678600	0.633206	1.023934	1621.601000
15.658743	0.603368	1.023224	1622.101000
15.642042	0.573922	1.022558	1622.601000
15.622332	0.545340	1.021952	1623.101000
15.604697	0.517347	1.021330	1623.601000
15.582999	0.490620	1.020683	1624.101000
15.567392	0.465105	1.020274	1624.601000
15.543840	0.440671	1.020130	1625.101000
15.531374	0.416506	1.020044	1625.601000
15.512207	0.393564	1.019844	1626.101000
15.490491	0.371123	1.019654	1626.601000
15.473137	0.350403	1.019598	1627.101000
15.456090	0.331801	1.019454	1627.601000
15.439941	0.314381	1.019232	1628.101000
15.420694	0.299357	1.019040	1628.601000
15.398514	0.285345	1.018846	1629.101000
15.377017	0.272414	1.018713	1629.601000
15.354307	0.260614	1.018727	1630.102000
15.340446	0.249084	1.018836	1630.601000
15.323489	0.238540	1.018911	1631.101000
15.304831	0.229515	1.018969	1631.601000
15.285901	0.221404	1.019024	1632.101000
15.267150	0.214523	1.018943	1632.601000
15.242463	0.208113	1.018873	1633.102000
15.225529	0.203631	1.018739	1633.601000
15.206204	0.201758	1.018638	1634.101000
15.186194	0.200312	1.018534	1634.601000
15.162349	0.198652	1.018505	1635.101000
15.146653	0.199305	1.018644	1635.602000
15.126088	0.202670	1.018843	1636.101000
15.103930	0.207976	1.019037	1636.601000
15.085194	0.213706	1.019242	1637.101000
15.071191	0.221342	1.019148	1637.601000
15.048970	0.230850	1.019008	1638.101000
15.027839	0.241788	1.019014	1638.601000
15.002963	0.254634	1.019153	1639.101000
14.989287	0.268852	1.019230	1639.601000
14.971424	0.285270	1.019032	1640.101000
14.953176	0.303612	1.018706	1640.601000
14.927388	0.323896	1.018386	1641.101000
14.910033	0.344480	1.017928	1641.601000
14.890343	0.363739	1.017489	1642.101000
14.868173	0.383453	1.017091	1642.601000
14.846049	0.403796	1.016649	1643.101000
14.827969	0.424762	1.015876	1643.602000
14.809395	0.445241	1.015034	1644.102000
14.790693	0.465046	1.014023	1644.601000
14.767306	0.485465	1.013103	1645.101000
14.749929	0.505403	1.012092	1645.601000
14.732570	0.524410	1.010808	1646.101000
14.716131	0.542621	1.009446	1646.601000
14.695452	0.561358	1.008060	1647.101000
14.675629	0.580361	1.006673	1647.601000
14.656440	0.598964	1.005105	1648.101000
14.630416	0.615674	1.003552	1648.601000
14.616543	0.630525	1.001947	1649.102000
14.597604	0.644476	1.000287	1649.601000
14.575095	0.659025	0.998580	1650.101000
14.553839	0.672473	0.996908	1650.601000
14.532727	0.687591	0.994900	1651.101000
14.511994	0.702681	0.993125	1651.601000
14.492841	0.717217	0.991253	1652.101000
14.476426	0.731523	0.989456	1652.601000
14.456972	0.746235	0.987463	1653.101000
14.444627	0.761328	0.985321	1653.601000
14.426635	0.775581	0.983526	1654.102000
14.408245	0.788829	0.981751	1654.601000
14.390682	0.801600	0.979814	1655.101000
14.372987	0.815043	0.977999	1655.601000
14.352273	0.828241	0.976383	1656.101000
14.333333	0.840475	0.974831	1656.601000
14.313184	0.852278	0.973242	1657.101000
14.293404	0.863811	0.971463	1657.601000
14.271215	0.875301	0.969477	1658.101000
14.250348	0.886492	0.967445	1658.601000
14.228128	0.897214	0.965273	1659.101000
14.208932	0.907575	0.963200	1659.601000
14.193040	0.919415	0.961231	1660.101000
14.170732	0.931023	0.959414	1660.601000
14.149894	0.942414	0.957611	1661.101000
14.132911	0.952751	0.955709	1661.601000
14.112528	0.962588	0.953923	1662.101000
14.094149	0.972917	0.952064	1662.601000
14.073032	0.983826	0.950106	1663.101000
14.053858	0.993754	0.948126	1663.601000
14.035694	1.002823	0.946070	1664.102000
14.017927	1.013406	0.944105	1664.601000
13.996776	1.024431	0.942218	1665.101000
13.976029	1.034530	0.940456	1665.601000
13.957799	1.044032	0.938715	1666.101000
13.939866	1.054065	0.936802	1666.601000
13.920425	1.064973	0.935206	1667.101000
13.898774	1.075597	0.933530	1667.601000
13.879554	1.085989	0.931747	1668.101000
13.862339	1.096341	0.930039	1668.601000
13.840942	1.106569	0.928578	1669.101000
13.821734	1.116575	0.927012	1669.602000
13.801347	1.125991	0.925291	1670.101000
13.786473	1.135862	0.923572	1670.601000
13.768679	1.146083	0.921789	1671.102000
13.748077	1.155813	0.919785	1671.601000
13.730754	1.165747	0.917996	1672.101000
13.710897	1.175467	0.916350	1672.601000
13.692869	1.184454	0.914904	1673.101000
13.671734	1.194017	0.913428	1673.601000
13.651287	1.202829	0.911995	1674.101000
13.633647	1.210711	0.910417	1674.602000
13.614932	1.216790	0.908780	1675.101000
13.597203	1.222495	0.907003	1675.601000
13.578618	1.229061	0.905403	1676.101000
13.560539	1.236306	0.903780	1676.601000
13.540839	1.243094	0.902208	1677.101000
13.521836	1.249403	0.900749	1677.601000
13.503334	1.256639	0.899170	1678.101000
13.484046	1.263171	0.897549	1678.601000
13.462961	1.269167	0.896053	1679.101000
13.444411	1.274285	0.894742	1679.601000
13.425283	1.278734	0.893320	1680.101000
13.406479	1.283925	0.891758	1680.601000
13.387629	1.288693	0.890226	1681.102000
13.370811	1.293320	0.888859	1681.601000
13.350583	1.296555	0.887307	1682.102000
13.331766	1.300026	0.885784	1682.601000
13.313412	1.304018	0.884253	1683.101000
13.294815	1.307679	0.882848	1683.601000
13.274244	1.311315	0.881538	1684.101000
13.255400	1.313012	0.880170	1684.601000
13.235419	1.313675	0.878741	1685.102000
13.215110	1.314915	0.877378	1685.601000
13.197373	1.316947	0.876082	1686.101000
13.177378	1.319835	0.874638	1686.601000
13.159736	1.322860	0.873145	1687.101000
13.143960	1.325340	0.871786	1687.601000
13.126201	1.327527	0.870350	1688.101000
13.107001	1.328312	0.868966	1688.601000
13.083892	1.328121	0.867545	1689.101000
13.062978	1.329697	0.866095	1689.601000
13.045637	1.330817	0.864592	1690.101000
13.029014	1.330683	0.863003	1690.601000
13.008889	1.331066	0.861461	1691.102000
12.987475	1.329772	0.860091	1691.601000
12.965966	1.328386	0.858731	1692.101000
12.948070	1.327574	0.857522	1692.601000
12.926530	1.326368	0.856236	1693.101000
12.911944	1.326102	0.854796	1693.601000
12.890576	1.323355	0.853606	1694.101000
12.873087	1.319448	0.852271	1694.601000
12.852220	1.316548	0.850882	1695.101000
12.835965	1.314713	0.849348	1695.601000
12.818285	1.313314	0.847821	1696.101000
12.796913	1.310944	0.846447	1696.601000
12.777325	1.307923	0.845129	1697.101000
12.758419	1.303778	0.844099	1697.601000
12.738554	1.298674	0.842997	1698.101000
12.722205	1.294298	0.841745	1698.601000
12.704095	1.290367	0.840427	1699.101000
12.682666	1.287364	0.839011	1699.601000
12.663839	1.283866	0.837700	1700.101000
12.645164	1.278773	0.836370	1700.601000
12.625776	1.273211	0.835131	1701.102000
12.606637	1.266860	0.833792	1701.601000
12.586555	1.261116	0.832337	1702.101000
12.568533	1.254417	0.830943	1702.601000
12.550226	1.247980	0.829472	1703.101000
12.532343	1.241584	0.828124	1703.601000
12.517082	1.234569	0.826800	1704.101000
12.499059	1.226706	0.825306	1704.601000
12.477698	1.219025	0.824081	1705.102000
12.452303	1.210043	0.823115	1705.602000
12.433765	1.200596	0.821995	1706.101000
12.415239	1.191721	0.820792	1706.601000
12.398705	1.182203	0.819514	1707.101000
12.377957	1.171923	0.818248	1707.601000
12.359540	1.161248	0.816966	1708.101000
12.340778	1.151144	0.815705	1708.601000
12.324107	1.141033	0.814180	1709.101000
12.302712	1.129434	0.812892	1709.601000
12.282723	1.117324	0.811672	1710.101000
12.264188	1.105611	0.810357	1710.601000
12.248434	1.093547	0.809122	1711.101000
12.224366	1.081292	0.807987	1711.601000
12.210019	1.067838	0.806570	1712.101000
12.190060	1.053523	0.805355	1712.601000
12.175189	1.038766	0.804280	1713.101000
12.149485	1.023387	0.803203	1713.601000
12.130749	1.008657	0.801915	1714.102000
12.108059	0.994365	0.800678	1714.601000
12.091409	0.979560	0.799392	1715.101000
12.073708	0.963915	0.798239	1715.601000
12.058099	0.946898	0.797051	1716.102000
12.037866	0.929026	0.795863	1716.602000
12.020905	0.909715	0.794681	1717.101000
11.999420	0.889477	0.793460	1717.601000
11.983898	0.869404	0.792200	1718.101000
11.960845	0.849957	0.791107	1718.601000
11.944632	0.830739	0.790145	1719.101000
11.927041	0.810898	0.789239	1719.601000
11.909028	0.789926	0.788188	1720.101000
11.887690	0.769740	0.786974	1720.602000
11.871643	0.747801	0.786003	1721.101000
11.847942	0.724983	0.785134	1721.601000
11.825674	0.702500	0.784138	1722.101000
11.804285	0.679463	0.783023	1722.601000
11.785020	0.655975	0.782001	1723.101000
11.770049	0.631188	0.781005	1723.601000
11.755274	0.606225	0.779943	1724.101000
11.735839	0.580666	0.778885	1724.601000
11.711784	0.554240	0.777921	1725.101000
11.690756	0.529049	0.776944	1725.601000
11.674110	0.503099	0.776308	1726.102000
11.654404	0.475975	0.775683	1726.602000
11.639597	0.448779	0.774935	1727.101000
11.622748	0.423047	0.774369	1727.601000
11.604762	0.398899	0.773673	1728.101000
11.581866	0.375463	0.773150	1728.601000
11.570268	0.354059	0.772548	1729.101000
11.548111	0.333369	0.771904	1729.601000
11.526792	0.312963	0.771463	1730.101000
11.508014	0.294570	0.771094	1730.602000
11.491534	0.277802	0.770758	1731.102000
11.469352	0.261512	0.770574	1731.601000
11.452943	0.247736	0.770332	1732.101000
11.435891	0.235931	0.770095	1732.601000
11.412360	0.226903	0.769850	1733.102000
11.398655	0.221405	0.769682	1733.601000
11.377081	0.217949	0.769472	1734.101000
11.357763	0.215263	0.769131	1734.601000
11.339249	0.213432	0.768905	1735.101000
11.320016	0.215206	0.768954	1735.601000
11.302532	0.219421	0.768982	1736.102000
11.283496	0.224607	0.768875	1736.601000
11.265512	0.232149	0.768640	1737.101000
11.247256	0.241489	0.768499	1737.601000
11.224270	0.253522	0.768217	1738.101000
11.207954	0.266810	0.767787	1738.601000
11.184747	0.281671	0.767434	1739.101000
11.165525	0.296049	0.767034	1739.601000
11.148041	0.312027	0.766470	1740.101000
11.133258	0.328667	0.765720	1740.601000
11.115741	0.344270	0.764891	1741.101000
11.101456	0.358506	0.764165	1741.601000
11.081359	0.370929	0.763309	1742.101000
11.050907	0.384098	0.762320	1742.601000
11.038034	0.398523	0.761134	1743.101000
11.018724	0.413740	0.759729	1743.601000
11.002422	0.429413	0.758341	1744.101000
10.985977	0.443628	0.756918	1744.601000
10.967670	0.457726	0.755496	1745.101000
10.946320	0.471543	0.754136	1745.601000
10.922504	0.484390	0.752654	1746.101000
10.905083	0.497879	0.751056	1746.602000
10.888347	0.510549	0.749364	1747.101000
10.864051	0.523262	0.747522	1747.601000
10.847346	0.535794	0.745786	1748.101000
10.830289	0.548800	0.744254	1748.601000
10.819218	0.561258	0.742582	1749.101000
10.804174	0.573184	0.740807	1749.601000
10.775717	0.584566	0.738886	1750.101000
10.762805	0.596381	0.736927	1750.601000
10.737714	0.607340	0.735056	1751.101000
10.717258	0.617390	0.733306	1751.601000
10.699149	0.627832	0.731580	1752.101000
10.685109	0.637959	0.730001	1752.601000
10.670991	0.647721	0.728335	1753.101000
10.647235	0.657244	0.726863	1753.601000
10.626364	0.666823	0.725255	1754.102000
10.614785	0.676503	0.723538	1754.601000
10.595151	0.685912	0.721775	1755.101000
10.570499	0.694715	0.720080	1755.601000
10.554904	0.703949	0.718287	1756.101000
10.537436	0.714465	0.716481	1756.601000
10.515440	0.724374	0.714721	1757.101000
10.501358	0.732960	0.713094	1757.601000
10.486381	0.741259	0.711340	1758.101000
10.466724	0.751088	0.709674	1758.601000
10.439477	0.759657	0.708095	1759.101000
10.422623	0.767843	0.706714	1759.601000
10.408063	0.775323	0.705105	1760.101000
10.385852	0.783735	0.703379	1760.601000
10.368933	0.791557	0.701696	1761.101000
10.351776	0.797977	0.700251	1761.601000
10.330927	0.804796	0.698788	1762.102000
10.308725	0.812226	0.697349	1762.601000
10.289585	0.820134	0.695952	1763.101000
10.270973	0.826988	0.694311	1763.601000
10.253452	0.834236	0.692537	1764.101000
10.233983	0.840945	0.690845	1764.601000
10.211853	0.846373	0.689248	1765.101000
10.189282	0.851941	0.687701	1765.601000
10.172086	0.856533	0.686130	1766.101000
10.150467	0.861209	0.684662	1766.601000
10.132080	0.864808	0.683246	1767.101000
10.118653	0.867530	0.681861	1767.601000
10.095826	0.871055	0.680244	1768.101000
10.078651	0.874448	0.678702	1768.601000
10.061196	0.876092	0.677361	1769.101000
10.039138	0.877338	0.676041	1769.602000
10.018799	0.879178	0.674779	1770.101000
9.997879	0.880395	0.673245	1770.601000
9.976889	0.880592	0.671785	1771.101000
9.955918	0.878835	0.670490	1771.602000
9.936984	0.876095	0.669101	1772.102000
9.922663	0.872542	0.667546	1772.601000
9.905881	0.869960	0.665968	1773.101000
9.884640	0.866750	0.664324	1773.601000
9.860281	0.862201	0.662639	1774.102000
9.839614	0.857994	0.661101	1774.601000
9.819736	0.852795	0.659884	1775.101000
9.798300	0.845413	0.658659	1775.601000
9.781631	0.838621	0.657227	1776.101000
9.759399	0.831845	0.655643	1776.601000
9.739055	0.823372	0.654107	1777.102000
9.720355	0.813312	0.652849	1777.602000
9.701474	0.803588	0.651572	1778.101000
9.675428	0.792844	0.650347	1778.602000
9.659661	0.780904	0.649241	1779.101000
9.635828	0.767850	0.648076	1779.601000
9.620404	0.753711	0.647073	1780.101000
9.600430	0.739727	0.645943	1780.601000
9.573404	0.725218	0.644419	1781.101000
9.553000	0.710212	0.642793	1781.601000
9.532955	0.693746	0.641439	1782.101000
9.512811	0.676216	0.640208	1782.601000
9.495815	0.658152	0.638816	1783.102000
9.476047	0.637182	0.637581	1783.601000
9.459282	0.615814	0.636399	1784.101000
9.438085	0.595324	0.635301	1784.601000
9.414975	0.573965	0.634223	1785.101000
9.396817	0.551633	0.633274	1785.601000
9.375015	0.530394	0.632073	1786.101000
9.354713	0.508887	0.630878	1786.601000
9.335092	0.486471	0.629600	1787.101000
9.316175	0.464018	0.628402	1787.601000
9.296003	0.440487	0.627399	1788.101000
9.277734	0.417570	0.626493	1788.601000
9.257549	0.395782	0.625591	1789.101000
9.235864	0.373897	0.624889	1789.601000
9.218146	0.352444	0.624143	1790.101000
9.199338	0.332972	0.623278	1790.601000
9.178658	0.315189	0.622504	1791.101000
9.157917	0.299249	0.621928	1791.601000
9.138695	0.284736	0.621467	1792.101000
9.121104	0.272937	0.620970	1792.601000
9.101064	0.263763	0.620551	1793.101000
9.079001	0.254950	0.620092	1793.601000
9.059378	0.246553	0.619816	1794.101000
9.041071	0.241325	0.619455	1794.601000
9.022571	0.240438	0.619142	1795.101000
9.002893	0.242185	0.618684	1795.601000
8.981827	0.244750	0.618184	1796.101000
8.961433	0.249061	0.617661	1796.601000
8.941839	0.256144	0.617018	1797.101000
8.924901	0.265039	0.616292	1797.601000
8.905524	0.276278	0.615589	1798.101000
8.885454	0.288647	0.614742	1798.601000
8.867608	0.300682	0.613898	1799.101000
8.849023	0.313463	0.612994	1799.601000
8.828967	0.325330	0.611988	1800.101000
8.810153	0.338824	0.610783	1800.601000
8.789191	0.351417	0.609564	1801.101000
8.769989	0.363134	0.608272	1801.601000
8.750673	0.375304	0.606842	1802.101000
8.732503	0.387942	0.605293	1802.601000
8.713464	0.400842	0.603692	1803.101000
8.693590	0.412002	0.602258	1803.601000
8.673458	0.424225	0.600755	1804.102000
8.654036	0.437212	0.599074	1804.601000
8.634515	0.448997	0.597283	1805.101000
8.615714	0.460161	0.595583	1805.601000
8.596307	0.471141	0.593762	1806.101000
8.577581	0.481670	0.592031	1806.601000
8.558931	0.492596	0.590446	1807.101000
8.539811	0.502981	0.588876	1807.601000
8.519240	0.511776	0.587276	1808.101000
8.502969	0.520404	0.585489	1808.601000
8.482167	0.528815	0.583681	1809.101000
8.462827	0.536906	0.581992	1809.601000
8.444135	0.545180	0.580313	1810.101000
8.423547	0.552656	0.578578	1810.601000
8.404495	0.559758	0.576834	1811.101000
8.384627	0.566946	0.575114	1811.601000
8.366154	0.574925	0.573423	1812.101000
8.347298	0.582788	0.571773	1812.601000
8.330555	0.588972	0.570173	1813.101000
8.310340	0.593893	0.568722	1813.601000
8.289275	0.599431	0.567311	1814.102000
8.268261	0.603831	0.565698	1814.601000
8.250525	0.607177	0.564225	1815.101000
8.233636	0.610772	0.562674	1815.601000
8.214584	0.613787	0.561093	1816.101000
8.194431	0.616080	0.559569	1816.601000
8.174174	0.619491	0.557914	1817.101000
8.153353	0.621591	0.556383	1817.601000
8.134422	0.620412	0.555070	1818.101000
8.115399	0.618260	0.553787	1818.601000
8.095813	0.615697	0.552284	1819.101000
8.077914	0.611976	0.550914	1819.601000
8.058539	0.609613	0.549581	1820.101000
8.039325	0.606635	0.548360	1820.601000
8.019949	0.601319	0.547017	1821.101000
7.999371	0.594757	0.545445	1821.601000
7.977591	0.587026	0.544147	1822.101000
7.959073	0.577684	0.542911	1822.601000
7.940579	0.567296	0.541704	1823.101000
7.922689	0.555665	0.540494	1823.601000
7.905795	0.542568	0.539310	1824.102000
7.886109	0.528916	0.538080	1824.601000
7.866669	0.515007	0.536837	1825.101000
7.849286	0.500516	0.535592	1825.601000
7.832510	0.486727	0.534459	1826.101000
7.813621	0.472255	0.533334	1826.601000
7.791906	0.456688	0.532225	1827.101000
7.771150	0.440181	0.531141	1827.601000
7.751988	0.422902	0.530109	1828.102000
7.731006	0.405168	0.529117	1828.602000
7.710710	0.387213	0.528171	1829.101000
7.691891	0.369525	0.527265	1829.601000
7.676236	0.351707	0.526276	1830.101000
7.656742	0.334645	0.525359	1830.602000
7.636193	0.319311	0.524338	1831.101000
7.616581	0.304800	0.523546	1831.601000
7.597169	0.291082	0.522904	1832.101000
7.578024	0.280434	0.522158	1832.601000
7.559409	0.272413	0.521454	1833.101000
7.541404	0.265524	0.520840	1833.602000
7.520898	0.259746	0.520323	1834.102000
7.501291	0.256887	0.519800	1834.601000
7.480328	0.255701	0.519127	1835.101000
7.462079	0.256746	0.518361	1835.601000
7.444710	0.259698	0.517420	1836.101000
7.425061	0.264631	0.516489	1836.601000
7.407003	0.269832	0.515805	1837.101000
7.385984	0.276744	0.514965	1837.601000
7.365687	0.285778	0.513837	1838.102000
7.345095	0.296218	0.512652	1838.601000
7.326071	0.307363	0.511547	1839.102000
7.306309	0.318520	0.510313	1839.601000
7.287546	0.328866	0.509135	1840.101000
7.269147	0.339025	0.508108	1840.601000
7.251310	0.349563	0.506922	1841.101000
7.233883	0.359667	0.505565	1841.602000
7.214974	0.370392	0.503967	1842.101000
7.194853	0.381876	0.502160	1842.601000
7.171949	0.392527	0.500432	1843.101000
7.153479	0.402674	0.498791	1843.601000
7.132260	0.412434	0.497170	1844.101000
7.111786	0.421336	0.495495	1844.601000
7.092422	0.429138	0.493701	1845.101000
7.070990	0.436368	0.491935	1845.601000
7.051539	0.444220	0.490107	1846.101000
7.033401	0.451128	0.488407	1846.601000
7.012900	0.456764	0.486686	1847.102000
6.994626	0.461846	0.485145	1847.601000
6.975166	0.465935	0.483519	1848.101000
6.953950	0.469665	0.482012	1848.601000
6.933384	0.473048	0.480367	1849.101000
6.915219	0.475388	0.478867	1849.602000
6.896251	0.475763	0.477348	1850.101000
6.876093	0.475147	0.475878	1850.601000
6.861897	0.474069	0.474455	1851.101000
6.845590	0.472244	0.473053	1851.601000
6.823089	0.469596	0.471531	1852.101000
6.799149	0.465754	0.469952	1852.601000
6.779489	0.461884	0.468508	1853.101000
6.766323	0.454909	0.467182	1853.601000
6.746326	0.447014	0.465878	1854.101000
6.730975	0.438580	0.464718	1854.602000
6.712409	0.430112	0.463663	1855.101000
6.692917	0.421049	0.462683	1855.601000
6.674697	0.411337	0.461686	1856.101000
6.652637	0.400558	0.460732	1856.601000
6.635628	0.388141	0.459766	1857.101000
6.617558	0.374878	0.458866	1857.601000
6.602562	0.361611	0.457656	1858.101000
6.581868	0.348513	0.456529	1858.601000
6.563966	0.334368	0.455336	1859.101000
6.549908	0.320630	0.454180	1859.601000
6.530478	0.309610	0.453096	1860.101000
6.514722	0.300123	0.452146	1860.601000
6.493976	0.290879	0.451269	1861.101000
6.465452	0.282814	0.450430	1861.601000
6.448102	0.277129	0.449620	1862.101000
6.429871	0.273590	0.448701	1862.601000
6.415991	0.270961	0.447863	1863.101000
6.396673	0.269350	0.447025	1863.602000
6.377628	0.270120	0.446017	1864.101000
6.354217	0.273491	0.444921	1864.601000
6.335806	0.277824	0.443935	1865.101000
6.318159	0.282513	0.442949	1865.601000
6.307703	0.289512	0.441899	1866.102000
6.288020	0.297156	0.440921	1866.601000
6.271850	0.304581	0.439937	1867.101000
6.251804	0.312966	0.438686	1867.601000
6.231778	0.321041	0.437452	1868.101000
6.208884	0.328506	0.436207	1868.601000
6.186714	0.336983	0.434879	1869.101000
6.165817	0.345760	0.433623	1869.601000
6.150358	0.354022	0.432259	1870.101000
6.135381	0.362302	0.430776	1870.601000
6.114201	0.369864	0.429184	1871.101000
6.090699	0.376244	0.427667	1871.601000
6.080076	0.381730	0.426242	1872.101000
6.064883	0.386579	0.424954	1872.602000
6.044279	0.390481	0.423559	1873.101000
6.022958	0.394022	0.422087	1873.601000
6.000872	0.397220	0.420563	1874.101000
5.987192	0.399648	0.418969	1874.601000
5.959821	0.399953	0.417477	1875.102000
5.939517	0.398844	0.416133	1875.601000
5.923398	0.396499	0.414714	1876.102000
5.907349	0.395407	0.413225	1876.601000
5.884506	0.393420	0.411750	1877.101000
5.863020	0.390323	0.410324	1877.601000
5.841945	0.383815	0.409133	1878.101000
5.824491	0.376342	0.408053	1878.601000
5.805726	0.368159	0.406889	1879.101000
5.786894	0.357968	0.405664	1879.601000
5.769841	0.347797	0.404537	1880.101000
5.749922	0.338365	0.403367	1880.602000
5.731988	0.328596	0.402289	1881.101000
5.714427	0.319800	0.401087	1881.601000
5.694938	0.312232	0.399754	1882.101000
5.671546	0.303897	0.398433	1882.602000
5.651460	0.297321	0.397436	1883.101000
5.633231	0.292015	0.396432	1883.601000
5.617133	0.287747	0.395516	1884.101000
5.603271	0.286126	0.394573	1884.601000
5.584875	0.285757	0.393620	1885.101000
5.563416	0.286989	0.392701	1885.601000
5.545270	0.289283	0.391851	1886.101000
5.525756	0.293323	0.390961	1886.601000
5.506223	0.297500	0.389953	1887.102000
5.484395	0.302407	0.388826	1887.601000
5.469837	0.307114	0.387735	1888.101000
5.451088	0.312274	0.386595	1888.601000
5.424049	0.319038	0.385331	1889.101000
5.395639	0.326570	0.383979	1889.601000
5.372386	0.334128	0.382590	1890.101000
5.353497	0.341131	0.381157	1890.601000
5.336104	0.346611	0.379489	1891.101000
5.323299	0.351370	0.377851	1891.601000
5.308918	0.356136	0.376415	1892.101000
5.290457	0.359075	0.375116	1892.601000
5.268835	0.360372	0.373622	1893.101000
5.249852	0.360448	0.372026	1893.601000
5.230584	0.359348	0.370441	1894.101000
5.209664	0.357084	0.368953	1894.601000
5.190054	0.354776	0.367592	1895.101000
5.163941	0.350862	0.366327	1895.601000
5.145669	0.346314	0.365082	1896.101000
5.130677	0.340090	0.363749	1896.601000
5.110771	0.334169	0.362192	1897.101000
5.092029	0.327384	0.360756	1897.601000
5.072970	0.320377	0.359593	1898.102000
5.050809	0.312923	0.358526	1898.601000
5.032051	0.305578	0.357511	1899.102000
5.013199	0.299201	0.356448	1899.601000
4.991776	0.294960	0.355400	1900.101000
4.972585	0.292457	0.354151	1900.601000
4.953027	0.291084	0.352724	1901.101000
4.932514	0.291098	0.351381	1901.602000
4.912757	0.293238	0.350146	1902.101000
4.895945	0.297377	0.349103	1902.601000
4.871859	0.302356	0.348166	1903.101000
4.853327	0.307288	0.347127	1903.601000
4.833697	0.312851	0.346156	1904.101000
4.808174	0.318709	0.345087	1904.601000
4.784063	0.323754	0.343690	1905.101000
4.763114	0.328778	0.342122	1905.601000
4.741822	0.333839	0.340506	1906.101000
4.725529	0.337494	0.338996	1906.601000
4.703957	0.340131	0.337471	1907.101000
4.681641	0.341067	0.335943	1907.601000
4.661150	0.341059	0.334629	1908.102000
4.642300	0.340532	0.333224	1908.601000
4.623224	0.339361	0.331845	1909.101000
4.602971	0.336913	0.330409	1909.601000
4.580960	0.333414	0.328818	1910.101000
4.561497	0.328123	0.327324	1910.601000
4.543172	0.323037	0.326004	1911.101000
4.521555	0.318156	0.324794	1911.602000
4.500601	0.313842	0.323617	1912.101000
4.478671	0.309851	0.322407	1912.601000
4.457441	0.307099	0.321098	1913.101000
4.436397	0.305457	0.319948	1913.601000
4.417395	0.304752	0.318839	1914.101000
4.396601	0.306102	0.317650	1914.601000
4.374205	0.308635	0.316314	1915.101000
4.354087	0.312504	0.314776	1915.601000
4.333859	0.316158	0.313354	1916.101000
4.315424	0.320919	0.311796	1916.601000
4.297612	0.325771	0.310439	1917.101000
4.276913	0.328816	0.308910	1917.601000
4.257318	0.331781	0.307478	1918.101000
4.238060	0.333802	0.306189	1918.601000
4.219773	0.334682	0.304828	1919.101000
4.202112	0.333784	0.303510	1919.601000
4.183859	0.332188	0.302054	1920.101000
4.165622	0.329593	0.300621	1920.601000
4.146061	0.325975	0.299305	1921.102000
4.127046	0.323433	0.298125	1921.601000
4.106541	0.320697	0.297072	1922.101000
4.086170	0.316920	0.296070	1922.601000
4.064801	0.313567	0.295063	1923.101000
4.046272	0.312574	0.293809	1923.602000
4.028752	0.313543	0.292477	1924.101000
4.009781	0.315598	0.291321	1924.601000
3.990642	0.317382	0.290208	1925.101000
3.970791	0.319494	0.289214	1925.601000
3.950987	0.321090	0.288130	1926.101000
3.932532	0.323034	0.286812	1926.601000
3.912073	0.326856	0.285548	1927.101000
3.892569	0.329856	0.284398	1927.601000
3.873939	0.331655	0.283013	1928.101000
3.855498	0.332312	0.281442	1928.601000
3.836002	0.331108	0.280013	1929.101000
3.816096	0.329612	0.278784	1929.601000
3.795912	0.327992	0.277613	1930.102000
3.775697	0.326353	0.276112	1930.601000
3.755272	0.325556	0.274542	1931.101000
3.734592	0.325285	0.273059	1931.601000
3.715029	0.324461	0.271687	1932.101000
3.694622	0.323686	0.270525	1932.601000
3.675634	0.323278	0.269539	1933.101000
3.655881	0.323300	0.268347	1933.601000
3.637668	0.324340	0.266985	1934.101000
3.617013	0.326276	0.265761	1934.601000
3.595915	0.328483	0.264411	1935.101000
3.574902	0.330097	0.262893	1935.602000
3.555313	0.331191	0.261455	1936.102000
3.536494	0.330644	0.260198	1936.601000
3.518369	0.330112	0.259134	1937.101000
3.496636	0.329657	0.257971	1937.601000
3.475992	0.330395	0.256703	1938.101000
3.456434	0.330910	0.255440	1938.601000
3.438218	0.330096	0.254174	1939.101000
3.416539	0.329004	0.252739	1939.601000
3.394341	0.328889	0.251366	1940.101000
3.374923	0.328933	0.250135	1940.601000
3.356854	0.329624	0.248914	1941.101000
3.336470	0.330269	0.247751	1941.601000
3.316719	0.330859	0.246327	1942.101000
3.296438	0.332690	0.244885	1942.601000
3.276573	0.334716	0.243558	1943.101000
3.258339	0.336285	0.242186	1943.601000
3.239814	0.336885	0.240866	1944.101000
3.220233	0.336435	0.239609	1944.601000
3.201181	0.336274	0.238471	1945.101000
3.181404	0.334746	0.237352	1945.601000
3.162831	0.334626	0.236093	1946.101000
3.143906	0.335357	0.234881	1946.601000
3.125372	0.336340	0.233561	1947.101000
3.108020	0.338044	0.232381	1947.601000
3.085330	0.338935	0.231365	1948.101000
3.069175	0.340207	0.230188	1948.601000
3.047017	0.342445	0.228774	1949.101000
3.024934	0.343979	0.227303	1949.601000
3.004013	0.344705	0.226007	1950.102000
2.982158	0.344450	0.224728	1950.601000
2.963702	0.343843	0.223330	1951.102000
2.945117	0.343262	0.221935	1951.601000
2.926700	0.343033	0.220627	1952.102000
2.907108	0.344329	0.219385	1952.601000
2.887590	0.345424	0.218039	1953.101000
2.866503	0.344630	0.216704	1953.601000
2.846606	0.344753	0.215416	1954.101000
2.827659	0.346368	0.214057	1954.601000
2.809358	0.347401	0.212866	1955.101000
2.790195	0.347413	0.211910	1955.601000
2.771753	0.347584	0.210931	1956.101000
2.752811	0.347524	0.209646	1956.601000
2.733498	0.348415	0.208254	1957.101000
2.714612	0.349188	0.206927	1957.601000
2.692398	0.350976	0.205691	1958.102000
2.671603	0.353427	0.204339	1958.601000
2.653468	0.354649	0.203042	1959.101000
2.635402	0.354716	0.201789	1959.601000
2.614961	0.353932	0.200586	1960.102000
2.596394	0.353123	0.199353	1960.601000
2.576431	0.352116	0.198080	1961.101000
2.558148	0.352620	0.196471	1961.601000
2.540506	0.353493	0.195045	1962.101000
2.523642	0.354051	0.193893	1962.601000
2.505154	0.355723	0.192720	1963.101000
2.487353	0.357124	0.191571	1963.601000
2.469025	0.357280	0.190338	1964.101000
2.448632	0.358145	0.189151	1964.601000
2.427745	0.359501	0.187724	1965.101000
2.407620	0.360058	0.186487	1965.601000
2.388324	0.360755	0.185327	1966.101000
2.370245	0.361111	0.184080	1966.601000
2.352305	0.361726	0.182798	1967.101000
2.332442	0.362492	0.181512	1967.601000
2.312736	0.362948	0.180133	1968.102000
2.294001	0.363107	0.178936	1968.601000
2.275416	0.364523	0.177727	1969.101000
2.258169	0.365518	0.176517	1969.601000
2.239664	0.366067	0.175252	1970.101000
2.220336	0.366650	0.173914	1970.601000
2.201712	0.368006	0.172646	1971.101000
2.183932	0.369315	0.171283	1971.601000
2.166489	0.370567	0.169879	1972.102000
2.147202	0.371458	0.168519	1972.601000
2.128219	0.371822	0.167261	1973.101000
2.110835	0.371931	0.166274	1973.601000
2.091633	0.372818	0.165262	1974.101000
2.073035	0.373943	0.164007	1974.602000
2.053631	0.374780	0.162719	1975.101000
2.032894	0.375843	0.161371	1975.602000
2.015958	0.376807	0.159972	1976.101000
1.997836	0.378402	0.158719	1976.601000
1.984247	0.379604	0.157333	1977.101000
1.966995	0.379849	0.155984	1977.602000
1.949279	0.381330	0.154614	1978.101000
1.929530	0.381810	0.153361	1978.601000
1.905862	0.379734	0.152317	1979.101000
1.888510	0.380010	0.151156	1979.601000
1.872932	0.380425	0.149991	1980.101000
1.856229	0.381430	0.148758	1980.601000
1.837589	0.381660	0.147615	1981.101000
1.822266	0.382803	0.146427	1981.601000
1.800504	0.383817	0.145309	1982.101000
1.781776	0.385281	0.144245	1982.601000
1.767598	0.387128	0.143131	1983.101000
1.747617	0.388652	0.141947	1983.602000
1.727442	0.389068	0.140804	1984.101000
1.707030	0.389520	0.139641	1984.601000
1.688838	0.390568	0.138601	1985.101000
1.672787	0.391461	0.137425	1985.601000
1.652353	0.392373	0.136068	1986.101000
1.631003	0.393447	0.134775	1986.601000
1.613672	0.394681	0.133541	1987.101000
1.597074	0.394634	0.132389	1987.602000
1.579809	0.395243	0.131142	1988.101000
1.563985	0.396992	0.129683	1988.601000
1.545936	0.398377	0.128384	1989.101000
1.523172	0.399123	0.127298	1989.601000
1.505710	0.400296	0.126209	1990.101000
1.485394	0.401565	0.125001	1990.601000
1.466812	0.401898	0.123673	1991.101000
1.447412	0.402331	0.122529	1991.601000
1.432074	0.402838	0.121414	1992.101000
1.415711	0.403431	0.120197	1992.601000
1.402795	0.405006	0.118810	1993.102000
1.380830	0.407035	0.117427	1993.601000
1.358545	0.408113	0.116192	1994.101000
1.340044	0.409280	0.115045	1994.602000
1.325124	0.409574	0.113764	1995.101000
1.309402	0.410695	0.112340	1995.601000
1.291223	0.411492	0.110961	1996.101000
1.272949	0.412090	0.109708	1996.601000
1.263525	0.412104	0.108600	1997.101000
1.243281	0.413182	0.107499	1997.602000
1.217019	0.413858	0.106437	1998.101000
1.205814	0.414610	0.105576	1998.601000
1.181109	0.416118	0.104510	1999.102000
1.156794	0.416818	0.103357	1999.601000
1.136719	0.416141	0.102444	2000.101000
1.118533	0.416903	0.101399	2000.601000
1.101111	0.417648	0.100162	2001.101000
1.086444	0.417768	0.098887	2001.601000
1.072247	0.418466	0.097376	2002.101000
1.058105	0.419574	0.095966	2002.601000
1.041678	0.421081	0.094679	2003.102000
1.017726	0.423429	0.093483	2003.601000
0.996959	0.425485	0.092358	2004.101000
0.981913	0.426862	0.091130	2004.601000
0.957549	0.427983	0.089908	2005.101000
0.942206	0.428594	0.088725	2005.601000
0.924783	0.430198	0.087496	2006.101000
0.902972	0.431149	0.086329	2006.601000
0.884830	0.432073	0.085170	2007.101000
0.871745	0.432784	0.084021	2007.601000
0.850059	0.432936	0.082841	2008.102000
0.828401	0.433852	0.081561	2008.601000
0.811149	0.434565	0.080248	2009.101000
0.795977	0.435522	0.079064	2009.601000
0.778958	0.437686	0.077830	2010.101000
0.759933	0.439330	0.076585	2010.601000
0.735107	0.440752	0.075402	2011.101000
0.721298	0.442461	0.074138	2011.601000
0.703568	0.442920	0.072851	2012.101000
0.679824	0.443230	0.071726	2012.601000
0.660494	0.444329	0.070662	2013.101000
0.644747	0.445305	0.069490	2013.601000
0.626337	0.447120	0.068145	2014.101000
0.598626	0.447971	0.067027	2014.601000
0.580729	0.448299	0.065928	2015.101000
0.567850	0.449394	0.064722	2015.601000
0.537723	0.450389	0.063522	2016.101000
0.525502	0.451212	0.062276	2016.602000
0.495808	0.452301	0.060910	2017.101000
0.482391	0.452913	0.059512	2017.601000
0.467631	0.454283	0.058155	2018.101000
0.445203	0.455445	0.056871	2018.601000
0.430405	0.457334	0.055645	2019.101000
0.415470	0.458932	0.054376	2019.601000
0.395480	0.459665	0.053197	2020.101000
0.375760	0.460491	0.052119	2020.601000
0.357596	0.461762	0.051058	2021.101000
0.339166	0.463135	0.049873	2021.601000
0.319351	0.464332	0.048521	2022.101000
0.301434	0.465824	0.047152	2022.601000
0.282106	0.466876	0.045826	2023.101000
0.261753	0.467956	0.044551	2023.601000
0.243649	0.469767	0.043444	2024.101000
0.226685	0.471202	0.042426	2024.601000
0.206885	0.472000	0.041420	2025.101000
0.183817	0.472878	0.040300	2025.601000
0.162534	0.473661	0.039359	2026.101000
0.141748	0.472969	0.038238	2026.601000
0.119749	0.473167	0.037009	2027.101000
0.094269	0.474011	0.035819	2027.601000
0.082168	0.475821	0.034595	2028.101000
0.082489	0.477312	0.033492	2028.602000
0.082404	0.479012	0.032454	2029.101000
0.082565	0.480216	0.031200	2029.601000
0.082800	0.481552	0.030119	2030.101000
0.082715	0.482195	0.029344	2030.601000
0.082831	0.481913	0.028665	2031.101000
0.082862	0.482262	0.028073	2031.601000
0.082955	0.483034	0.027628	2032.101000
0.082859	0.483823	0.027429	2032.601000
0.083000	0.484398	0.027003	2033.102000
0.082884	0.483615	0.026596	2033.601000
0.083010	0.483060	0.026239	2034.101000
0.083063	0.482935	0.025880	2034.601000
0.082858	0.483674	0.025574	2035.101000
0.083063	0.485940	0.025243	2035.601000
0.082874	0.486393	0.024974	2036.101000
0.082806	0.483883	0.024930	2036.601000
0.082856	0.482305	0.025031	2037.101000
0.082907	0.481384	0.025093	2037.601000
0.082938	0.480447	0.025307	2038.101000
0.082744	0.481369	0.025443	2038.602000
0.082733	0.481961	0.025479	2039.101000
0.082654	0.482618	0.025455	2039.601000
0.082709	0.483258	0.025460	2040.101000
0.082639	0.484262	0.025475	2040.601000
0.082614	0.485157	0.025413	2041.101000
0.082449	0.485493	0.025518	2041.601000
0.082391	0.484983	0.025576	2042.101000
