Data run started at:  Tuesday, October 17, 2017	4:12:13 PM
magnet(A)	lockin1(V)	lockin2(V)	time (sec)
NaN	NaN	NaN	10.903000
0.063035	0.482456	0.023940	11.151000
0.062759	0.482508	0.024055	11.651000
0.063056	0.483053	0.024022	12.151000
0.062970	0.483185	0.024004	12.652000
0.063080	0.482936	0.023901	13.151000
0.062818	0.482718	0.023725	13.652000
0.063006	0.483030	0.023649	14.151000
0.063051	0.483180	0.023416	14.652000
0.063029	0.483560	0.023161	15.151000
0.063895	0.483823	0.023098	15.651000
0.074448	0.482796	0.023128	16.151000
0.097321	0.482096	0.023212	16.651000
0.125308	0.482250	0.023230	17.151000
0.146964	0.481985	0.023386	17.651000
0.168307	0.481158	0.023857	18.151000
0.192545	0.481188	0.024460	18.651000
0.212622	0.481268	0.025096	19.151000
0.229098	0.480839	0.025841	19.652000
0.247461	0.480337	0.026754	20.151000
0.267145	0.479710	0.027591	20.651000
0.286475	0.479236	0.028463	21.151000
0.303391	0.478924	0.029518	21.651000
0.323697	0.478426	0.030471	22.151000
0.345434	0.476820	0.031591	22.651000
0.367922	0.475147	0.032783	23.151000
0.386238	0.474600	0.033907	23.651000
0.406651	0.473557	0.034858	24.151000
0.427197	0.471989	0.036004	24.651000
0.445081	0.470325	0.037142	25.151000
0.461729	0.469614	0.038193	25.652000
0.481013	0.469196	0.039320	26.151000
0.505707	0.468598	0.040443	26.651000
0.526210	0.467674	0.041437	27.151000
0.547120	0.466556	0.042631	27.651000
0.563087	0.466239	0.044032	28.151000
0.589561	0.465577	0.045320	28.651000
0.614044	0.464090	0.046480	29.151000
0.632953	0.462408	0.047748	29.651000
0.651785	0.460918	0.049078	30.151000
0.671661	0.459422	0.050447	30.651000
0.691107	0.457408	0.051824	31.151000
0.704913	0.455347	0.053182	31.651000
0.722334	0.453841	0.054488	32.151000
0.749928	0.453850	0.055633	32.651000
0.769132	0.453576	0.056945	33.151000
0.782031	0.452701	0.058360	33.651000
0.806125	0.451555	0.059774	34.151000
0.832640	0.450269	0.061156	34.652000
0.851706	0.448914	0.062464	35.151000
0.858578	0.447963	0.063698	35.651000
0.878979	0.446752	0.065069	36.151000
0.903500	0.445976	0.066350	36.652000
0.921872	0.445160	0.067466	37.151000
0.940885	0.443908	0.068672	37.651000
0.962703	0.442188	0.069881	38.152000
0.985246	0.441250	0.071141	38.651000
1.012973	0.439576	0.072480	39.152000
1.031149	0.437536	0.073864	39.651000
1.045712	0.435172	0.075319	40.151000
1.063248	0.433663	0.076724	40.651000
1.082831	0.432566	0.078339	41.151000
1.097029	0.431475	0.079750	41.651000
1.116248	0.429820	0.081081	42.151000
1.137745	0.428027	0.082393	42.651000
1.161971	0.427061	0.083602	43.151000
1.181875	0.426828	0.084833	43.651000
1.198006	0.426519	0.086051	44.151000
1.217661	0.426110	0.087333	44.651000
1.236987	0.425573	0.088690	45.151000
1.255698	0.424226	0.089913	45.651000
1.277386	0.422782	0.091268	46.151000
1.293280	0.421374	0.092551	46.651000
1.311396	0.420258	0.093802	47.151000
1.332549	0.419729	0.095058	47.651000
1.354621	0.418515	0.096432	48.151000
1.375839	0.417570	0.097847	48.651000
1.393057	0.417057	0.099126	49.151000
1.410556	0.415868	0.100492	49.651000
1.431893	0.414837	0.101728	50.152000
1.452490	0.413391	0.102857	50.651000
1.472128	0.411875	0.104132	51.151000
1.492059	0.410627	0.105447	51.651000
1.511519	0.409618	0.106692	52.151000
1.533056	0.408285	0.108037	52.651000
1.552602	0.407570	0.109316	53.151000
1.572421	0.407556	0.110638	53.651000
1.591217	0.407363	0.111797	54.151000
1.610968	0.406805	0.112912	54.651000
1.630826	0.405451	0.114298	55.151000
1.648291	0.403800	0.115785	55.651000
1.668881	0.401939	0.117380	56.151000
1.688589	0.400554	0.118679	56.651000
1.708945	0.399447	0.119803	57.151000
1.727542	0.398423	0.120953	57.651000
1.747612	0.397157	0.122214	58.151000
1.768877	0.395878	0.123396	58.651000
1.790393	0.395122	0.124513	59.151000
1.808636	0.394099	0.125833	59.651000
1.827457	0.393918	0.127158	60.151000
1.848116	0.392935	0.128416	60.651000
1.867831	0.392375	0.129696	61.151000
1.889652	0.390951	0.131062	61.651000
1.911025	0.389845	0.132310	62.151000
1.932025	0.389858	0.133562	62.651000
1.952755	0.390139	0.134745	63.151000
1.972946	0.389165	0.136007	63.652000
1.993260	0.387829	0.137417	64.151000
2.012622	0.386138	0.138753	64.651000
2.033209	0.384600	0.140042	65.151000
2.053943	0.383622	0.141456	65.651000
2.074050	0.382581	0.142911	66.151000
2.094942	0.380638	0.144200	66.651000
2.116964	0.379849	0.145468	67.151000
2.138328	0.378859	0.146959	67.651000
2.158782	0.377343	0.148438	68.151000
2.179203	0.376719	0.149851	68.651000
2.199646	0.376136	0.151298	69.151000
2.220209	0.375670	0.152578	69.651000
2.240988	0.374853	0.153930	70.151000
2.260703	0.373271	0.155454	70.651000
2.281076	0.371653	0.156925	71.151000
2.301575	0.369910	0.158400	71.651000
2.321796	0.369259	0.159878	72.151000
2.344501	0.368877	0.161320	72.651000
2.365231	0.367596	0.162670	73.151000
2.385495	0.366814	0.163904	73.651000
2.405850	0.365266	0.165263	74.151000
2.426135	0.364134	0.166689	74.651000
2.446933	0.363412	0.167966	75.151000
2.467377	0.362039	0.169207	75.652000
2.487235	0.359340	0.170601	76.151000
2.507002	0.358183	0.172070	76.651000
2.526245	0.357183	0.173405	77.151000
2.545511	0.356489	0.174924	77.651000
2.565326	0.356678	0.176508	78.151000
2.587347	0.355923	0.177887	78.651000
2.609332	0.354875	0.179077	79.151000
2.628314	0.353540	0.180080	79.651000
2.648080	0.352857	0.181040	80.151000
2.670459	0.352698	0.182269	80.651000
2.691199	0.352822	0.183637	81.151000
2.711537	0.353110	0.185102	81.651000
2.733168	0.353254	0.186441	82.151000
2.752869	0.353230	0.187701	82.651000
2.772947	0.353230	0.188955	83.151000
2.793912	0.351761	0.190247	83.651000
2.813229	0.349350	0.191669	84.151000
2.834462	0.347661	0.193016	84.652000
2.856063	0.346964	0.194260	85.151000
2.875955	0.346484	0.195524	85.651000
2.895254	0.344989	0.197076	86.151000
2.915944	0.343065	0.198658	86.651000
2.937309	0.340935	0.200223	87.151000
2.955489	0.339184	0.201606	87.652000
2.976581	0.338524	0.202931	88.152000
2.998921	0.338728	0.204382	88.651000
3.021828	0.339062	0.205833	89.152000
3.043966	0.339124	0.207186	89.651000
3.064688	0.338430	0.208647	90.151000
3.086641	0.337661	0.210030	90.651000
3.105824	0.336408	0.211523	91.151000
3.126292	0.335407	0.212997	91.651000
3.147865	0.333943	0.214486	92.151000
3.168553	0.331772	0.215972	92.651000
3.188453	0.330971	0.217338	93.151000
3.208243	0.331034	0.218614	93.651000
3.228497	0.331898	0.219817	94.151000
3.247650	0.333786	0.221003	94.651000
3.267850	0.334973	0.222327	95.151000
3.286926	0.335262	0.223818	95.651000
3.307085	0.333620	0.225309	96.151000
3.327248	0.331373	0.226461	96.651000
3.346822	0.329447	0.227590	97.151000
3.366214	0.326607	0.228800	97.651000
3.387060	0.324661	0.230190	98.151000
3.407486	0.324349	0.231558	98.651000
3.428802	0.324551	0.232961	99.151000
3.450330	0.326477	0.234305	99.651000
3.471939	0.328265	0.235487	100.151000
3.492714	0.329883	0.236760	100.651000
3.512116	0.331197	0.238022	101.151000
3.532747	0.331256	0.239172	101.651000
3.553469	0.330496	0.240502	102.151000
3.573599	0.327008	0.242031	102.651000
3.594447	0.322220	0.243438	103.151000
3.616089	0.316998	0.244944	103.651000
3.636380	0.313303	0.246284	104.151000
3.656522	0.311193	0.247447	104.651000
3.676700	0.311530	0.248594	105.151000
3.697705	0.313492	0.249892	105.651000
3.719008	0.316524	0.251198	106.151000
3.738190	0.320022	0.252625	106.651000
3.759054	0.323983	0.254206	107.151000
3.779033	0.327088	0.255787	107.651000
3.799310	0.328356	0.257267	108.151000
3.819838	0.327634	0.258678	108.651000
3.840564	0.325504	0.260016	109.151000
3.861523	0.321787	0.261356	109.651000
3.882062	0.316594	0.262614	110.151000
3.902987	0.310261	0.264076	110.651000
3.923920	0.305256	0.265316	111.151000
3.944814	0.301506	0.266479	111.651000
3.964779	0.299728	0.267686	112.151000
3.984724	0.300218	0.268808	112.651000
4.004900	0.303127	0.270108	113.152000
4.024215	0.308005	0.271409	113.651000
4.044797	0.314037	0.272820	114.151000
4.065479	0.320230	0.274207	114.651000
4.086230	0.324838	0.275596	115.151000
4.107809	0.327872	0.277179	115.651000
4.130406	0.328514	0.278935	116.151000
4.150247	0.327689	0.280493	116.651000
4.170797	0.325503	0.282035	117.151000
4.191414	0.321292	0.283531	117.651000
4.212294	0.315403	0.284862	118.151000
4.232404	0.308093	0.286206	118.651000
4.252258	0.300793	0.287486	119.151000
4.272150	0.295958	0.288763	119.651000
4.292139	0.291820	0.290089	120.151000
4.312372	0.288945	0.291292	120.651000
4.332630	0.289481	0.292485	121.151000
4.354254	0.293121	0.293668	121.651000
4.375876	0.298523	0.294791	122.151000
4.396601	0.305670	0.295992	122.651000
4.416551	0.313484	0.297237	123.151000
4.436953	0.321054	0.298515	123.651000
4.456459	0.327794	0.299956	124.151000
4.477396	0.333703	0.301416	124.651000
4.498740	0.337286	0.302942	125.151000
4.518943	0.337686	0.304483	125.651000
4.538398	0.335798	0.306027	126.151000
4.558622	0.332464	0.307552	126.651000
4.579793	0.327092	0.308934	127.151000
4.601426	0.319583	0.310435	127.651000
4.622474	0.310421	0.312144	128.151000
4.641651	0.301101	0.313557	128.651000
4.662679	0.292463	0.314788	129.151000
4.683705	0.285414	0.315979	129.651000
4.704620	0.280140	0.317079	130.151000
4.724625	0.275698	0.318144	130.651000
4.745179	0.274454	0.319249	131.152000
4.766212	0.277565	0.320428	131.651000
4.789309	0.283548	0.321479	132.151000
4.809824	0.292121	0.322777	132.651000
4.830252	0.301629	0.324112	133.152000
4.851596	0.312112	0.325355	133.651000
4.873022	0.322667	0.326487	134.152000
4.894249	0.332208	0.327751	134.651000
4.915117	0.340510	0.329118	135.151000
4.935323	0.347611	0.330507	135.651000
4.955868	0.352402	0.332091	136.151000
4.977733	0.354679	0.333871	136.652000
4.998813	0.353883	0.335548	137.151000
5.019636	0.350540	0.337230	137.651000
5.040192	0.344810	0.339001	138.151000
5.060856	0.337349	0.340672	138.651000
5.081265	0.328623	0.342357	139.151000
5.103722	0.318374	0.344078	139.651000
5.123185	0.306967	0.345652	140.151000
5.143388	0.294971	0.347109	140.651000
5.163620	0.283621	0.348486	141.151000
5.184680	0.273719	0.349652	141.651000
5.205637	0.266212	0.350651	142.151000
5.226429	0.261680	0.351688	142.651000
5.247251	0.260773	0.352777	143.151000
5.269447	0.263868	0.353803	143.651000
5.288416	0.269721	0.354775	144.151000
5.309900	0.278354	0.355585	144.651000
5.330165	0.289363	0.356518	145.151000
5.351948	0.302571	0.357430	145.651000
5.376094	0.316291	0.358280	146.151000
5.399617	0.329197	0.359360	146.651000
5.422249	0.341451	0.360592	147.151000
5.442113	0.352930	0.361968	147.651000
5.463166	0.362905	0.363392	148.151000
5.484651	0.371264	0.365007	148.651000
5.504631	0.377161	0.366723	149.151000
5.524730	0.381319	0.368459	149.651000
5.546681	0.382786	0.370157	150.151000
5.565432	0.382656	0.372057	150.651000
5.584321	0.380290	0.374100	151.152000
5.603783	0.376351	0.375970	151.651000
5.622999	0.370158	0.377740	152.151000
5.642865	0.362437	0.379512	152.651000
5.665046	0.352978	0.381337	153.151000
5.686648	0.341344	0.382976	153.651000
5.703720	0.329210	0.384490	154.151000
5.723061	0.316069	0.385882	154.651000
5.744265	0.303145	0.387327	155.151000
5.763612	0.290091	0.388711	155.651000
5.784052	0.277153	0.390055	156.151000
5.802303	0.266218	0.391256	156.651000
5.819846	0.257763	0.392349	157.151000
5.840181	0.251639	0.393345	157.651000
5.861274	0.248201	0.394255	158.151000
5.881694	0.247159	0.395039	158.651000
5.898913	0.249828	0.395678	159.151000
5.920191	0.255747	0.396392	159.651000
5.940023	0.264673	0.397392	160.151000
5.960703	0.276336	0.398291	160.651000
5.980497	0.290387	0.399286	161.151000
6.002774	0.306654	0.400255	161.651000
6.024560	0.323846	0.401023	162.151000
6.039257	0.340833	0.401850	162.651000
6.058869	0.357772	0.402720	163.151000
6.084034	0.374069	0.403669	163.651000
6.102756	0.388652	0.404854	164.151000
6.117800	0.401785	0.406206	164.651000
6.137954	0.413499	0.407615	165.151000
6.159075	0.422750	0.409088	165.651000
6.181435	0.429828	0.410665	166.151000
6.200123	0.435690	0.412156	166.651000
6.219800	0.439516	0.413708	167.151000
6.238966	0.442055	0.415457	167.652000
6.257822	0.442862	0.417360	168.151000
6.277548	0.442084	0.419046	168.651000
6.294205	0.439429	0.420503	169.151000
6.314102	0.435461	0.422016	169.651000
6.334814	0.429669	0.423572	170.151000
6.356802	0.423555	0.425082	170.651000
6.374200	0.416347	0.426713	171.152000
6.392455	0.406604	0.428604	171.651000
6.412294	0.396032	0.430583	172.151000
6.430916	0.383931	0.432701	172.651000
6.456902	0.371738	0.434838	173.152000
6.474378	0.358909	0.436678	173.651000
6.493025	0.344981	0.438335	174.151000
6.511180	0.330293	0.439936	174.651000
6.529530	0.315126	0.441277	175.151000
6.550453	0.300367	0.442469	175.651000
6.569373	0.286007	0.443616	176.151000
6.588154	0.272617	0.444508	176.651000
6.605771	0.259977	0.445322	177.151000
6.626609	0.248679	0.445964	177.651000
6.645414	0.240237	0.446537	178.151000
6.665810	0.233869	0.447304	178.651000
6.685664	0.230598	0.447918	179.151000
6.704441	0.231412	0.448505	179.651000
6.724452	0.236010	0.449048	180.151000
6.742266	0.243843	0.449634	180.651000
6.763079	0.254133	0.450361	181.151000
6.783238	0.267739	0.451134	181.651000
6.803111	0.284170	0.451969	182.151000
6.823367	0.303119	0.452774	182.651000
6.843363	0.322622	0.453726	183.152000
6.864623	0.342376	0.454641	183.651000
6.884168	0.362770	0.455596	184.151000
6.904588	0.383205	0.456658	184.651000
6.925436	0.404555	0.457726	185.152000
6.945559	0.424918	0.458681	185.651000
6.965179	0.444223	0.459632	186.151000
6.985346	0.461919	0.460687	186.652000
7.006720	0.477462	0.461950	187.151000
7.025689	0.492059	0.463260	187.651000
7.047331	0.503794	0.464677	188.151000
7.068594	0.514401	0.466112	188.651000
7.088739	0.523157	0.467558	189.151000
7.109251	0.529960	0.469183	189.651000
7.130302	0.534870	0.470846	190.151000
7.152662	0.538288	0.472472	190.651000
7.172905	0.540346	0.474074	191.151000
7.191981	0.540447	0.475652	191.651000
7.211577	0.539086	0.477274	192.152000
7.232225	0.536376	0.478936	192.651000
7.253148	0.532329	0.480714	193.151000
7.273189	0.527402	0.482527	193.651000
7.292140	0.521421	0.484356	194.151000
7.312449	0.515093	0.486229	194.651000
7.332819	0.508139	0.488216	195.151000
7.351791	0.500522	0.490096	195.651000
7.371475	0.491554	0.491957	196.151000
7.391391	0.481371	0.493637	196.651000
7.412169	0.469869	0.495421	197.151000
7.432809	0.457014	0.497310	197.651000
7.454313	0.442693	0.499347	198.151000
7.474791	0.428552	0.501416	198.651000
7.495621	0.414340	0.503412	199.151000
7.516778	0.399367	0.505202	199.651000
7.537005	0.383585	0.506957	200.151000
7.557831	0.368188	0.508738	200.651000
7.577770	0.352635	0.510260	201.151000
7.598712	0.335756	0.512042	201.651000
7.620066	0.318350	0.513606	202.151000
7.640926	0.300832	0.514982	202.651000
7.660981	0.283616	0.516140	203.151000
7.682418	0.266741	0.517152	203.651000
7.704323	0.251103	0.517962	204.151000
7.725850	0.237333	0.518513	204.651000
7.745843	0.226147	0.518900	205.151000
7.765789	0.218101	0.519336	205.651000
7.787070	0.213757	0.520008	206.151000
7.808388	0.214455	0.520579	206.651000
7.829853	0.218706	0.521114	207.151000
7.851692	0.225841	0.521665	207.651000
7.872697	0.237173	0.521958	208.151000
7.892538	0.252175	0.522305	208.651000
7.914011	0.271819	0.522798	209.151000
7.933875	0.293856	0.523315	209.651000
7.954738	0.318088	0.523966	210.151000
7.975107	0.343552	0.524713	210.651000
7.996146	0.370189	0.525546	211.151000
8.017261	0.398109	0.526535	211.651000
8.039204	0.426224	0.527486	212.151000
8.061426	0.454402	0.528423	212.651000
8.082603	0.482778	0.529351	213.151000
8.101388	0.510092	0.530420	213.651000
8.123386	0.534849	0.531559	214.151000
8.143562	0.557604	0.532777	214.651000
8.164827	0.578877	0.534061	215.151000
8.185905	0.598484	0.535354	215.651000
8.207388	0.616453	0.536771	216.151000
8.227585	0.633006	0.538185	216.651000
8.247213	0.649475	0.539443	217.151000
8.268988	0.663724	0.540944	217.651000
8.290666	0.675298	0.542348	218.151000
8.310409	0.685114	0.543785	218.651000
8.331051	0.692451	0.545321	219.151000
8.351173	0.698615	0.546869	219.651000
8.371277	0.704555	0.548267	220.151000
8.392581	0.708671	0.549624	220.651000
8.414435	0.711970	0.550994	221.151000
8.434784	0.713505	0.552468	221.651000
8.454761	0.714105	0.554090	222.152000
8.476116	0.714382	0.555720	222.651000
8.498149	0.713933	0.557504	223.151000
8.518443	0.711707	0.559334	223.651000
8.538108	0.707850	0.561136	224.151000
8.558122	0.702235	0.562851	224.651000
8.577918	0.695108	0.564508	225.151000
8.599068	0.687169	0.566454	225.651000
8.620264	0.678920	0.568403	226.151000
8.640236	0.670329	0.570272	226.652000
8.661210	0.661327	0.572211	227.151000
8.681745	0.651930	0.573992	227.651000
8.704093	0.642157	0.575738	228.151000
8.724866	0.631756	0.577521	228.651000
8.744349	0.621455	0.579278	229.151000
8.765865	0.610399	0.581234	229.651000
8.786304	0.598710	0.583366	230.151000
8.806871	0.586024	0.585578	230.652000
8.826393	0.572787	0.587688	231.151000
8.845764	0.559083	0.589570	231.652000
8.865805	0.544471	0.591429	232.151000
8.885535	0.529354	0.593332	232.651000
8.905642	0.515196	0.595361	233.151000
8.926636	0.500659	0.597489	233.651000
8.947845	0.484848	0.599523	234.151000
8.970246	0.468417	0.601564	234.651000
8.991024	0.451831	0.603597	235.152000
9.010832	0.435073	0.605525	235.651000
9.030728	0.419164	0.607286	236.151000
9.051224	0.402190	0.609170	236.651000
9.071143	0.384184	0.611042	237.152000
9.090930	0.366230	0.612760	237.651000
9.110884	0.348233	0.614272	238.151000
9.130878	0.328400	0.615633	238.651000
9.151479	0.308294	0.616667	239.151000
9.172898	0.289051	0.617515	239.651000
9.194830	0.269637	0.618246	240.151000
9.217651	0.251331	0.618962	240.651000
9.238815	0.234762	0.619522	241.151000
9.259241	0.219864	0.619900	241.651000
9.280836	0.208971	0.620217	242.152000
9.300946	0.201574	0.620348	242.651000
9.321036	0.198524	0.620379	243.152000
9.342560	0.199653	0.620444	243.651000
9.363369	0.204194	0.620427	244.151000
9.386089	0.211165	0.620571	244.651000
9.409299	0.221166	0.620788	245.151000
9.429504	0.234508	0.621027	245.651000
9.451770	0.252311	0.621252	246.151000
9.471729	0.273445	0.621706	246.651000
9.494080	0.297481	0.622075	247.151000
9.514869	0.324609	0.622539	247.651000
9.536954	0.353376	0.623165	248.151000
9.561465	0.383382	0.623799	248.651000
9.584536	0.414286	0.624462	249.151000
9.605101	0.446445	0.625286	249.651000
9.626075	0.478945	0.626271	250.151000
9.646213	0.511116	0.627328	250.651000
9.668484	0.541672	0.628628	251.151000
9.690988	0.571531	0.629880	251.651000
9.712067	0.602077	0.631068	252.151000
9.732439	0.632402	0.632138	252.652000
9.753494	0.662327	0.632971	253.151000
9.775807	0.690933	0.633822	253.651000
9.797030	0.718311	0.635066	254.151000
9.818864	0.743786	0.636481	254.651000
9.839291	0.767157	0.637839	255.151000
9.864948	0.789581	0.639119	255.651000
9.887001	0.811420	0.640317	256.152000
9.906746	0.832758	0.641758	256.651000
9.927249	0.852536	0.643290	257.151000
9.947112	0.871430	0.644863	257.651000
9.969360	0.889286	0.646339	258.151000
9.990028	0.904706	0.647857	258.651000
10.011559	0.918799	0.649253	259.151000
10.033710	0.932060	0.650550	259.651000
10.055814	0.944052	0.651962	260.151000
10.077957	0.955258	0.653427	260.651000
10.098770	0.966811	0.654885	261.151000
10.120413	0.976366	0.656267	261.651000
10.141336	0.984240	0.657650	262.151000
10.160880	0.990987	0.659139	262.651000
10.182707	0.996814	0.660830	263.151000
10.204647	1.002279	0.662614	263.651000
10.224349	1.007269	0.664374	264.151000
10.245967	1.009913	0.665946	264.651000
10.268344	1.011406	0.667592	265.151000
10.290643	1.012498	0.669149	265.651000
10.312585	1.012665	0.670582	266.151000
10.334372	1.011952	0.672025	266.651000
10.356268	1.010771	0.673658	267.151000
10.375109	1.008877	0.675269	267.651000
10.395690	1.005595	0.677102	268.152000
10.419279	1.001210	0.678780	268.651000
10.437296	0.996537	0.680382	269.151000
10.458539	0.991512	0.682034	269.651000
10.480917	0.985878	0.683878	270.151000
10.498349	0.979181	0.685699	270.651000
10.518558	0.971978	0.687409	271.151000
10.540814	0.963443	0.689017	271.651000
10.561941	0.954834	0.690815	272.151000
10.581865	0.946677	0.692715	272.651000
10.600630	0.937314	0.694751	273.151000
10.620902	0.926638	0.696618	273.651000
10.642019	0.915719	0.698584	274.151000
10.662271	0.904572	0.700572	274.651000
10.682233	0.894160	0.702548	275.151000
10.703073	0.883557	0.704546	275.651000
10.726358	0.872086	0.706339	276.151000
10.745325	0.859740	0.707936	276.651000
10.766904	0.847556	0.709678	277.151000
10.785315	0.834926	0.711612	277.651000
10.802442	0.822674	0.713664	278.151000
10.821466	0.809990	0.715858	278.651000
10.845333	0.797362	0.717785	279.151000
10.865855	0.784986	0.719569	279.651000
10.885840	0.772823	0.721443	280.151000
10.910384	0.760347	0.723477	280.652000
10.930715	0.747482	0.725511	281.151000
10.949045	0.734805	0.727491	281.651000
10.968134	0.721095	0.729516	282.151000
10.987663	0.707052	0.731500	282.651000
11.007739	0.693104	0.733601	283.151000
11.036406	0.678643	0.735607	283.652000
11.060188	0.663689	0.737513	284.151000
11.072830	0.648187	0.739507	284.651000
11.088382	0.631331	0.741711	285.151000
11.104987	0.613821	0.743899	285.651000
11.128271	0.595864	0.746080	286.151000
11.152100	0.577645	0.747943	286.651000
11.170981	0.559798	0.749757	287.151000
11.192733	0.541498	0.751901	287.651000
11.210826	0.523344	0.754063	288.151000
11.232987	0.505886	0.755968	288.651000
11.252033	0.488096	0.757799	289.151000
11.272751	0.469278	0.759441	289.651000
11.291608	0.449220	0.761243	290.151000
11.311295	0.428840	0.762903	290.651000
11.332172	0.408666	0.764261	291.151000
11.353897	0.388951	0.765666	291.651000
11.370682	0.369143	0.766781	292.151000
11.391559	0.348344	0.767781	292.651000
11.411897	0.326064	0.768639	293.151000
11.432482	0.303982	0.769355	293.651000
11.454459	0.282559	0.770028	294.151000
11.475507	0.261753	0.770381	294.651000
11.496295	0.242321	0.770453	295.151000
11.517529	0.225578	0.770450	295.651000
11.535107	0.211161	0.770565	296.151000
11.556164	0.199969	0.770588	296.651000
11.576887	0.191623	0.770576	297.151000
11.597355	0.185839	0.770701	297.651000
11.618734	0.183236	0.770849	298.151000
11.639246	0.183197	0.770990	298.651000
11.658976	0.186002	0.771076	299.151000
11.681511	0.191409	0.771242	299.652000
11.703507	0.199103	0.771174	300.151000
11.724539	0.209321	0.770950	300.651000
11.745914	0.222516	0.770908	301.151000
11.766702	0.238019	0.770888	301.651000
11.787156	0.255308	0.770916	302.151000
11.808513	0.275237	0.770940	302.651000
11.829313	0.297539	0.771106	303.151000
11.849104	0.321796	0.771533	303.651000
11.869894	0.348477	0.771969	304.151000
11.889725	0.376345	0.772339	304.651000
11.910715	0.406190	0.772805	305.151000
11.933582	0.436890	0.773343	305.651000
11.953912	0.468994	0.773958	306.151000
11.973793	0.502861	0.774584	306.651000
11.993887	0.537025	0.775204	307.151000
12.016231	0.569891	0.775997	307.651000
12.037118	0.603515	0.776792	308.151000
12.057838	0.636864	0.777528	308.651000
12.079028	0.669132	0.778388	309.152000
12.099926	0.701910	0.779182	309.651000
12.122324	0.734687	0.780183	310.151000
12.142731	0.766472	0.781302	310.651000
12.163916	0.797240	0.782432	311.151000
12.184082	0.826378	0.783589	311.651000
12.206347	0.854642	0.784794	312.151000
12.227198	0.883158	0.785961	312.651000
12.247343	0.911163	0.787149	313.151000
12.267929	0.938185	0.788299	313.652000
12.291120	0.964466	0.789574	314.151000
12.312814	0.990674	0.790839	314.651000
12.332629	1.015808	0.792066	315.151000
12.353308	1.039874	0.793315	315.651000
12.373163	1.062694	0.794644	316.151000
12.394413	1.085234	0.795995	316.651000
12.415305	1.106458	0.797210	317.152000
12.436155	1.127099	0.798484	317.651000
12.455964	1.146535	0.799767	318.151000
12.476017	1.165062	0.801244	318.651000
12.496748	1.184297	0.802640	319.152000
12.517100	1.202212	0.804059	319.651000
12.535980	1.217317	0.805421	320.151000
12.554514	1.232086	0.806762	320.651000
12.574143	1.248225	0.808155	321.151000
12.596300	1.263151	0.809749	321.651000
12.617980	1.276716	0.811423	322.151000
12.637863	1.289306	0.812791	322.651000
12.658866	1.302283	0.813893	323.151000
12.678359	1.314902	0.815132	323.651000
12.699233	1.326851	0.816426	324.151000
12.720372	1.338171	0.817869	324.651000
12.738321	1.348549	0.819365	325.151000
12.757413	1.358487	0.820903	325.651000
12.777145	1.368006	0.822314	326.151000
12.797743	1.377218	0.823482	326.651000
12.819371	1.386018	0.824599	327.151000
12.841106	1.394328	0.825793	327.651000
12.861159	1.401280	0.827297	328.151000
12.880280	1.407889	0.828917	328.651000
12.900844	1.415136	0.830466	329.152000
12.920724	1.420816	0.831913	329.651000
12.941229	1.426134	0.833342	330.151000
12.961124	1.431485	0.834725	330.651000
12.981420	1.436730	0.836164	331.151000
13.001116	1.441423	0.837473	331.651000
13.020549	1.446448	0.838774	332.151000
13.041360	1.450869	0.840340	332.652000
13.062142	1.454530	0.841892	333.151000
13.083294	1.458444	0.843417	333.651000
13.105153	1.462131	0.844706	334.151000
13.126078	1.464698	0.846092	334.652000
13.147110	1.466487	0.847552	335.151000
13.166475	1.467022	0.849133	335.651000
13.186728	1.467740	0.850623	336.151000
13.207226	1.468671	0.852105	336.651000
13.227834	1.469595	0.853468	337.151000
13.248490	1.470328	0.854871	337.651000
13.268820	1.470080	0.856274	338.151000
13.289797	1.469826	0.857937	338.651000
13.310707	1.469978	0.859698	339.152000
13.331332	1.469613	0.861297	339.651000
13.350928	1.469171	0.862939	340.151000
13.371146	1.468338	0.864574	340.651000
13.391733	1.466750	0.866059	341.151000
13.411046	1.465229	0.867552	341.651000
13.428764	1.463449	0.868915	342.151000
13.448447	1.461730	0.870417	342.651000
13.468740	1.460017	0.871828	343.151000
13.489327	1.458200	0.873347	343.651000
13.508875	1.454494	0.874768	344.151000
13.528166	1.449924	0.876092	344.652000
13.548462	1.445010	0.877460	345.151000
13.568680	1.441458	0.878966	345.651000
13.588758	1.437846	0.880562	346.151000
13.607186	1.434458	0.882071	346.651000
13.627227	1.430503	0.883483	347.151000
13.647116	1.425398	0.885031	347.651000
13.666668	1.420066	0.886665	348.151000
13.686828	1.414730	0.888310	348.651000
13.706559	1.409817	0.889973	349.151000
13.726366	1.404424	0.891681	349.651000
13.745449	1.398970	0.893317	350.152000
13.765437	1.392422	0.894918	350.651000
13.786272	1.385977	0.896515	351.151000
13.806814	1.378724	0.898258	351.651000
13.827774	1.370927	0.900007	352.151000
13.848877	1.362603	0.901744	352.651000
13.870212	1.354264	0.903302	353.151000
13.890374	1.344841	0.904759	353.651000
13.910582	1.334539	0.906341	354.151000
13.930314	1.324362	0.908145	354.652000
13.950093	1.314067	0.910012	355.151000
13.972493	1.302701	0.911804	355.651000
13.993072	1.292027	0.913526	356.151000
14.014454	1.281166	0.915310	356.651000
14.035391	1.269881	0.917100	357.151000
14.056739	1.259178	0.919191	357.651000
14.078134	1.247610	0.921322	358.151000
14.098522	1.236252	0.923295	358.651000
14.119149	1.224689	0.925183	359.151000
14.140830	1.212854	0.927136	359.651000
14.160592	1.200746	0.929085	360.151000
14.181516	1.188977	0.931149	360.651000
14.201900	1.177811	0.933116	361.151000
14.221353	1.166463	0.935162	361.651000
14.242187	1.155165	0.937384	362.151000
14.263270	1.143340	0.939506	362.651000
14.284661	1.131365	0.941508	363.151000
14.305444	1.119862	0.943560	363.651000
14.326636	1.108714	0.945751	364.151000
14.347425	1.096786	0.948076	364.651000
14.367896	1.083929	0.950386	365.151000
14.387809	1.070858	0.952596	365.651000
14.407257	1.057705	0.954813	366.151000
14.427617	1.045361	0.957120	366.651000
14.448503	1.032334	0.959321	367.152000
14.470608	1.018493	0.961287	367.651000
14.492327	1.005059	0.963337	368.152000
14.513737	0.991435	0.965328	368.651000
14.534350	0.977129	0.967409	369.151000
14.555243	0.962281	0.969640	369.651000
14.575527	0.946614	0.971906	370.152000
14.596640	0.929580	0.974227	370.651000
14.617740	0.911590	0.976513	371.151000
14.639944	0.893999	0.978816	371.651000
14.661582	0.877014	0.980990	372.151000
14.683257	0.858744	0.983188	372.651000
14.704549	0.840810	0.985451	373.151000
14.728197	0.822319	0.987786	373.651000
14.749999	0.803927	0.990062	374.151000
14.771818	0.784757	0.992236	374.652000
14.791653	0.764940	0.994501	375.151000
14.812403	0.744700	0.996909	375.651000
14.831964	0.724408	0.999098	376.151000
14.853843	0.702414	1.001277	376.651000
14.875002	0.680082	1.003540	377.151000
14.896257	0.657136	1.005751	377.651000
14.915469	0.633621	1.007563	378.152000
14.937166	0.610969	1.009179	378.651000
14.957186	0.587430	1.010627	379.151000
14.978532	0.564220	1.011877	379.651000
14.998012	0.540549	1.013121	380.151000
15.019917	0.515928	1.014438	380.651000
15.040575	0.491627	1.015792	381.151000
15.060708	0.466605	1.016907	381.651000
15.082917	0.441374	1.017820	382.151000
15.103466	0.415496	1.018543	382.651000
15.125273	0.389441	1.019274	383.151000
15.146206	0.364116	1.019862	383.651000
15.166325	0.339291	1.020285	384.151000
15.186503	0.315185	1.020592	384.651000
15.208671	0.292702	1.020866	385.151000
15.229565	0.272095	1.020861	385.652000
15.249063	0.252576	1.020834	386.151000
15.268751	0.234500	1.021044	386.651000
15.288468	0.219520	1.021364	387.151000
15.307718	0.205643	1.021551	387.651000
15.328909	0.194328	1.021543	388.151000
15.350048	0.186432	1.021459	388.651000
15.371966	0.181070	1.021426	389.151000
15.394611	0.177567	1.021396	389.651000
15.414158	0.175775	1.021409	390.152000
15.434104	0.175542	1.021471	390.651000
15.454730	0.177435	1.021581	391.151000
15.476049	0.180319	1.021814	391.651000
15.495071	0.183982	1.021903	392.151000
15.515463	0.188176	1.022016	392.651000
15.535777	0.194749	1.021957	393.151000
15.555489	0.202311	1.021736	393.651000
15.575065	0.210875	1.021489	394.151000
15.595941	0.221017	1.021361	394.651000
15.615995	0.231588	1.021287	395.151000
15.637673	0.243894	1.021176	395.652000
15.657106	0.257381	1.021034	396.151000
15.677860	0.270853	1.020960	396.651000
15.698303	0.285632	1.020824	397.151000
15.718348	0.302424	1.020752	397.651000
15.738591	0.319984	1.020864	398.151000
15.758626	0.339232	1.020889	398.651000
15.779784	0.360039	1.020927	399.151000
15.797883	0.382496	1.020908	399.651000
15.820401	0.405278	1.020860	400.152000
15.843805	0.430631	1.020966	400.651000
15.862006	0.457996	1.021212	401.152000
15.883147	0.486607	1.021383	401.651000
15.902661	0.516094	1.021597	402.151000
15.924669	0.547058	1.021725	402.651000
15.945624	0.578798	1.021871	403.151000
15.969760	0.611638	1.022185	403.652000
15.988030	0.645220	1.022711	404.151000
16.005424	0.679373	1.023225	404.651000
16.025843	0.713692	1.023849	405.151000
16.045984	0.748072	1.024587	405.652000
16.065319	0.782157	1.025386	406.151000
16.088773	0.816357	1.026269	406.651000
16.106873	0.849387	1.027174	407.151000
16.129045	0.882276	1.028160	407.651000
16.147773	0.915257	1.029220	408.151000
16.166338	0.947757	1.030070	408.651000
16.188311	0.979780	1.030859	409.151000
16.213552	1.010887	1.031845	409.651000
16.233153	1.041656	1.033037	410.151000
16.253186	1.071785	1.034253	410.651000
16.272756	1.101323	1.035401	411.151000
16.295112	1.130703	1.036498	411.651000
16.317241	1.159422	1.037569	412.151000
16.335383	1.187559	1.038634	412.651000
16.356942	1.216468	1.039715	413.151000
16.379031	1.244073	1.040710	413.651000
16.399688	1.270817	1.041795	414.151000
16.425661	1.296294	1.043186	414.651000
16.444221	1.320955	1.044689	415.151000
16.467069	1.343808	1.046147	415.652000
16.487527	1.367370	1.047617	416.151000
16.508743	1.391251	1.049120	416.651000
16.529618	1.414939	1.050453	417.151000
16.553444	1.437494	1.051893	417.651000
16.573354	1.458819	1.053293	418.151000
16.595425	1.479991	1.054689	418.651000
16.619559	1.499911	1.056175	419.151000
16.637098	1.520576	1.057532	419.651000
16.657939	1.541500	1.058761	420.151000
16.678003	1.562036	1.060107	420.651000
16.698600	1.581471	1.061508	421.151000
16.718895	1.599517	1.062802	421.651000
16.738156	1.616429	1.064337	422.151000
16.756980	1.632479	1.065843	422.651000
16.775962	1.648972	1.067204	423.151000
16.797407	1.664158	1.068604	423.652000
16.816718	1.677793	1.070027	424.151000
16.836267	1.690546	1.071677	424.651000
16.855430	1.703351	1.073196	425.151000
16.875399	1.716484	1.074791	425.652000
16.896114	1.729758	1.076282	426.151000
16.915309	1.741817	1.077744	426.652000
16.935992	1.752919	1.079016	427.151000
16.955664	1.764589	1.080259	427.651000
16.976548	1.776071	1.081664	428.151000
16.998560	1.787531	1.083047	428.651000
17.018583	1.798749	1.084581	429.151000
17.038618	1.809580	1.086080	429.651000
17.059704	1.819840	1.087648	430.151000
17.081852	1.829861	1.089193	430.651000
17.102224	1.839618	1.090820	431.152000
17.123468	1.848611	1.092390	431.651000
17.144064	1.857743	1.093873	432.151000
17.163768	1.866433	1.095368	432.651000
17.183381	1.874957	1.096947	433.151000
17.205643	1.883057	1.098444	433.651000
17.226537	1.890883	1.100075	434.151000
17.247645	1.898314	1.101669	434.651000
17.267698	1.905487	1.103281	435.151000
17.289016	1.911336	1.104854	435.651000
17.309415	1.916905	1.106442	436.151000
17.330049	1.923196	1.107928	436.652000
17.350964	1.929825	1.109419	437.152000
17.373660	1.936242	1.111081	437.651000
17.395903	1.942489	1.112603	438.151000
17.417810	1.948214	1.114027	438.651000
17.437854	1.953461	1.115440	439.151000
17.458175	1.958256	1.116862	439.651000
17.478268	1.962613	1.118391	440.151000
17.499751	1.966330	1.120100	440.651000
17.521792	1.969243	1.121771	441.152000
17.541770	1.972388	1.123221	441.651000
17.563080	1.976035	1.124634	442.151000
17.586053	1.979404	1.126148	442.651000
17.607117	1.981881	1.127651	443.151000
17.627297	1.984353	1.129247	443.651000
17.647845	1.986341	1.130884	444.151000
17.669123	1.987973	1.132493	444.651000
17.690499	1.990578	1.134131	445.151000
17.711563	1.993117	1.135677	445.652000
17.732103	1.995188	1.137135	446.151000
17.754102	1.996642	1.138573	446.651000
17.776166	1.998045	1.140134	447.151000
17.798441	1.999036	1.141682	447.651000
17.819129	2.000330	1.143213	448.151000
17.839304	2.001104	1.144703	448.651000
17.860874	2.001558	1.146257	449.151000
17.882186	2.001676	1.147872	449.651000
17.905044	2.002497	1.149463	450.151000
17.927006	2.003159	1.150966	450.651000
17.947998	2.004136	1.152492	451.151000
17.968735	2.004975	1.153851	451.651000
17.989670	2.005617	1.155251	452.151000
18.010432	2.005898	1.156853	452.652000
18.030971	2.005515	1.158315	453.151000
18.051928	2.005420	1.159672	453.651000
18.073188	2.005024	1.161035	454.151000
18.093787	2.004945	1.162369	454.651000
18.113991	2.004252	1.163660	455.151000
18.136231	2.003602	1.165072	455.651000
18.157183	2.002880	1.166419	456.151000
18.178461	2.002374	1.167752	456.651000
18.198935	2.001590	1.169147	457.151000
18.220242	2.001284	1.170423	457.651000
18.240652	2.001331	1.171866	458.151000
18.262541	2.000809	1.173136	458.651000
18.284456	1.999894	1.174410	459.151000
18.307232	1.999199	1.175812	459.651000
18.328745	1.997492	1.177178	460.151000
18.349896	1.995236	1.178521	460.651000
18.372745	1.992777	1.179874	461.152000
18.393745	1.992278	1.181167	461.651000
18.414404	1.991868	1.182365	462.151000
18.437134	1.990469	1.183615	462.652000
18.461349	1.990490	1.184971	463.151000
18.483689	1.990313	1.186380	463.651000
18.504546	1.989560	1.187904	464.151000
18.525746	1.989295	1.189196	464.651000
18.547255	1.989731	1.190378	465.151000
18.569068	1.990508	1.191517	465.651000
18.591306	1.991142	1.192741	466.151000
18.615494	1.991206	1.194002	466.652000
18.637409	1.990900	1.195246	467.151000
18.659164	1.989994	1.196453	467.651000
18.681311	1.989608	1.197787	468.151000
18.702343	1.990017	1.198927	468.651000
18.723034	1.990804	1.200050	469.151000
18.745540	1.991796	1.201309	469.651000
18.768951	1.992515	1.202661	470.151000
18.791558	1.993417	1.204128	470.651000
18.812129	1.995161	1.205583	471.152000
18.832859	1.996645	1.206958	471.651000
18.851678	1.998303	1.208299	472.151000
18.872644	2.000257	1.209572	472.651000
18.892737	2.001709	1.210795	473.151000
18.912652	2.003444	1.211991	473.651000
18.933958	2.006096	1.213399	474.151000
18.956148	2.008603	1.214644	474.651000
18.979618	2.010011	1.215857	475.151000
19.000739	2.012183	1.217185	475.651000
19.022485	2.014275	1.218462	476.151000
19.044257	2.015741	1.219630	476.652000
19.065398	2.017145	1.220974	477.151000
19.086557	2.019743	1.222059	477.651000
19.109272	2.023534	1.223225	478.151000
19.131876	2.027976	1.224539	478.651000
19.153045	2.031832	1.225936	479.151000
19.174454	2.035151	1.227330	479.651000
19.194862	2.037792	1.228695	480.151000
19.215728	2.039896	1.230306	480.651000
19.237604	2.042441	1.231855	481.151000
19.258392	2.045963	1.233314	481.651000
19.280002	2.050076	1.234558	482.151000
19.302264	2.053978	1.235744	482.651000
19.324966	2.056833	1.237248	483.151000
19.345937	2.059615	1.238791	483.651000
19.367772	2.062540	1.240239	484.151000
19.387955	2.065425	1.241688	484.651000
19.409769	2.067759	1.243094	485.151000
19.431229	2.069992	1.244510	485.651000
19.452829	2.073384	1.245765	486.151000
19.474390	2.076771	1.247277	486.652000
19.497256	2.079391	1.248886	487.151000
19.521054	2.081467	1.250458	487.651000
19.542632	2.083331	1.251889	488.151000
19.563502	2.085291	1.253442	488.651000
19.584538	2.086640	1.254855	489.151000
19.606001	2.088138	1.256434	489.651000
19.627415	2.089385	1.258089	490.151000
19.649086	2.090278	1.259821	490.651000
19.670413	2.091758	1.261522	491.151000
19.691196	2.093282	1.263156	491.651000
19.712376	2.094834	1.264677	492.152000
19.734785	2.095485	1.266291	492.651000
19.755795	2.095607	1.267887	493.151000
19.775872	2.096038	1.269568	493.651000
19.796292	2.095460	1.271269	494.151000
19.817164	2.094785	1.273005	494.651000
19.839664	2.093591	1.274835	495.151000
19.861758	2.093118	1.276659	495.651000
19.882538	2.092476	1.278342	496.151000
19.903162	2.092542	1.279971	496.651000
19.923682	2.091865	1.281635	497.151000
19.943750	2.091026	1.283263	497.651000
19.964160	2.089621	1.284742	498.151000
19.985529	2.087035	1.286216	498.651000
20.007282	2.084583	1.287776	499.151000
20.028476	2.081826	1.289536	499.651000
20.049184	2.078655	1.291140	500.152000
20.071390	2.075826	1.292785	500.651000
20.092993	2.073767	1.294483	501.151000
20.114474	2.071292	1.296295	501.651000
20.136264	2.068287	1.298102	502.151000
20.156268	2.064419	1.299847	502.651000
20.178430	2.060254	1.301629	503.151000
20.200972	2.056299	1.303501	503.651000
20.222106	2.052873	1.305401	504.151000
20.245718	2.048731	1.307328	504.651000
20.266586	2.043655	1.309494	505.151000
20.288089	2.038148	1.311613	505.651000
20.309775	2.032705	1.313610	506.151000
20.331106	2.026867	1.315380	506.652000
20.351329	2.020821	1.317092	507.151000
20.371307	2.014730	1.318897	507.651000
20.392860	2.007892	1.320855	508.151000
20.413452	2.000933	1.322819	508.651000
20.433454	1.994508	1.324942	509.151000
20.454274	1.987909	1.327049	509.651000
20.474633	1.980979	1.329083	510.152000
20.495382	1.973971	1.330960	510.651000
20.516681	1.966634	1.332839	511.151000
20.538254	1.959219	1.334760	511.651000
20.558919	1.951044	1.336704	512.152000
20.578845	1.942360	1.338756	512.651000
20.598518	1.933654	1.340826	513.151000
20.619295	1.925038	1.342926	513.651000
20.640407	1.916725	1.344972	514.151000
20.660315	1.909043	1.346913	514.651000
20.681561	1.900368	1.348951	515.151000
20.702972	1.891186	1.350913	515.651000
20.725595	1.882051	1.352910	516.151000
20.746383	1.873166	1.354960	516.652000
20.766052	1.863966	1.357189	517.151000
20.787193	1.854887	1.359374	517.651000
20.808770	1.846176	1.361541	518.151000
20.830643	1.837281	1.363539	518.651000
20.850184	1.827691	1.365494	519.151000
20.868367	1.817748	1.367523	519.652000
20.891431	1.807676	1.369604	520.152000
20.912632	1.797951	1.371740	520.651000
20.930849	1.787959	1.373831	521.152000
20.951984	1.778244	1.375820	521.651000
20.972714	1.768936	1.377932	522.151000
20.994062	1.758696	1.380109	522.651000
21.016584	1.749018	1.382328	523.151000
21.035922	1.740651	1.384449	523.651000
21.056484	1.732362	1.386674	524.152000
21.074959	1.722922	1.389067	524.651000
21.095880	1.712870	1.391340	525.151000
21.117474	1.703586	1.393392	525.651000
21.138354	1.693265	1.395490	526.151000
21.158960	1.683958	1.397567	526.651000
21.183213	1.674170	1.399813	527.151000
21.201842	1.664075	1.402262	527.652000
21.224146	1.654047	1.404929	528.151000
21.241978	1.644515	1.407563	528.651000
21.263032	1.634207	1.409972	529.151000
21.283401	1.624030	1.412276	529.651000
21.306322	1.613250	1.414630	530.152000
21.328261	1.602335	1.416942	530.651000
21.351501	1.591961	1.418984	531.151000
21.371371	1.580824	1.421071	531.651000
21.390018	1.568710	1.423391	532.151000
21.408390	1.558321	1.426056	532.651000
21.430239	1.548570	1.428493	533.151000
21.451789	1.537168	1.430740	533.651000
21.471232	1.524451	1.433075	534.151000
21.492589	1.511966	1.435425	534.652000
21.511706	1.499398	1.437781	535.151000
21.532015	1.486566	1.440267	535.652000
21.552254	1.473733	1.442444	536.151000
21.571933	1.460154	1.444579	536.651000
21.593056	1.446457	1.446905	537.151000
21.615479	1.433625	1.449321	537.652000
21.636899	1.420266	1.451503	538.151000
21.655374	1.405635	1.453667	538.651000
21.676712	1.390044	1.455996	539.151000
21.696559	1.373758	1.458434	539.651000
21.716370	1.357452	1.460778	540.151000
21.737509	1.340128	1.463152	540.651000
21.758493	1.322560	1.465646	541.151000
21.778430	1.304868	1.468055	541.651000
21.799622	1.286342	1.470397	542.151000
21.819803	1.267244	1.472585	542.651000
21.840778	1.247977	1.474895	543.151000
21.862087	1.227401	1.477169	543.651000
21.883311	1.204564	1.479269	544.151000
21.904582	1.181533	1.481445	544.651000
21.924714	1.158388	1.483572	545.151000
21.948914	1.133967	1.485793	545.651000
21.971005	1.108930	1.488143	546.151000
21.987164	1.083853	1.490462	546.651000
22.007955	1.058742	1.492734	547.151000
22.027993	1.033594	1.494966	547.652000
22.047273	1.008287	1.497044	548.151000
22.067877	0.982420	1.498823	548.651000
22.089950	0.956029	1.500648	549.151000
22.110411	0.929888	1.502478	549.652000
22.130923	0.902775	1.504232	550.151000
22.151300	0.875685	1.505782	550.651000
22.172250	0.847931	1.507277	551.151000
22.192994	0.820239	1.508704	551.651000
22.212593	0.791953	1.510010	552.151000
22.233275	0.763258	1.511248	552.651000
22.256052	0.734699	1.512548	553.151000
22.277407	0.705763	1.513946	553.651000
22.297734	0.677444	1.515106	554.151000
22.318768	0.648743	1.516158	554.651000
22.340561	0.620164	1.517070	555.151000
22.362625	0.591055	1.517818	555.651000
22.382846	0.561994	1.518668	556.151000
22.403555	0.534100	1.519476	556.651000
22.424827	0.507857	1.520008	557.151000
22.445791	0.481775	1.520511	557.652000
22.467736	0.456491	1.520795	558.151000
22.489550	0.431701	1.521090	558.651000
22.511747	0.406193	1.521419	559.151000
22.533418	0.381856	1.521634	559.651000
22.554854	0.358383	1.521849	560.151000
22.576155	0.336987	1.522023	560.651000
22.600842	0.317565	1.522108	561.151000
22.621321	0.300311	1.522292	561.651000
22.643237	0.284163	1.522508	562.152000
22.664588	0.268802	1.522650	562.651000
22.685838	0.256070	1.522665	563.151000
22.707751	0.244316	1.522689	563.651000
22.730546	0.234101	1.522578	564.151000
22.754469	0.225781	1.522511	564.651000
22.776295	0.218633	1.522641	565.151000
22.798831	0.213156	1.522770	565.651000
22.820004	0.207397	1.522891	566.151000
22.840909	0.203177	1.522796	566.651000
22.864564	0.200170	1.522715	567.151000
22.887726	0.198501	1.522613	567.651000
22.909787	0.197741	1.522608	568.151000
22.931225	0.198342	1.522658	568.651000
22.953264	0.199813	1.522731	569.151000
22.975354	0.202015	1.522894	569.651000
22.997460	0.204695	1.522910	570.151000
23.019592	0.207734	1.522995	570.651000
23.041263	0.211899	1.522883	571.151000
23.064920	0.216647	1.522754	571.651000
23.086624	0.220987	1.522606	572.151000
23.109126	0.224870	1.522477	572.651000
23.130301	0.229865	1.522456	573.152000
23.153996	0.235209	1.522594	573.651000
23.176112	0.240986	1.522643	574.151000
23.197576	0.247750	1.522575	574.651000
23.219388	0.253520	1.522521	575.151000
23.241415	0.259562	1.522277	575.651000
23.263003	0.266260	1.522216	576.151000
23.285174	0.273232	1.522295	576.651000
23.308825	0.279778	1.522277	577.151000
23.331780	0.286494	1.522213	577.651000
23.354947	0.294676	1.522131	578.151000
23.376270	0.303343	1.522006	578.651000
23.398845	0.312070	1.521872	579.151000
23.422949	0.320865	1.522000	579.652000
23.445721	0.330694	1.522051	580.151000
23.467802	0.341228	1.521912	580.652000
23.489472	0.352699	1.521836	581.151000
23.510947	0.363958	1.521667	581.651000
23.534062	0.376410	1.521513	582.151000
23.557869	0.389326	1.521365	582.651000
23.580494	0.402087	1.521220	583.151000
23.601650	0.415980	1.521021	583.651000
23.623200	0.430555	1.520921	584.151000
23.644338	0.446052	1.520766	584.651000
23.664530	0.462168	1.520612	585.151000
23.685194	0.479185	1.520547	585.651000
23.706914	0.496482	1.520453	586.151000
23.728954	0.514457	1.520249	586.651000
23.752085	0.533632	1.520034	587.151000
23.772998	0.554411	1.519716	587.651000
23.794253	0.575637	1.519456	588.151000
23.815747	0.597706	1.519221	588.651000
23.838610	0.620973	1.519072	589.151000
23.860677	0.644638	1.519025	589.651000
23.881087	0.669938	1.519089	590.151000
23.901836	0.696937	1.518966	590.651000
23.924927	0.725196	1.518857	591.151000
23.945830	0.754406	1.518739	591.651000
23.967314	0.785188	1.518764	592.151000
23.988634	0.815672	1.518871	592.651000
24.010115	0.847361	1.518889	593.151000
24.033455	0.880889	1.518767	593.651000
24.056943	0.914535	1.518883	594.151000
24.079993	0.948250	1.519120	594.651000
24.102276	0.982340	1.519442	595.152000
24.124302	1.018199	1.519769	595.651000
24.146141	1.055697	1.520157	596.152000
24.167451	1.094023	1.520484	596.651000
24.188614	1.132769	1.520586	597.151000
24.210674	1.172645	1.520884	597.651000
24.232220	1.213043	1.521329	598.151000
24.253167	1.252827	1.521738	598.652000
24.274365	1.292006	1.522441	599.151000
24.294450	1.331225	1.523287	599.651000
24.315492	1.370003	1.524210	600.151000
24.337735	1.408661	1.525042	600.651000
24.359070	1.447496	1.525924	601.151000
24.382036	1.485703	1.526797	601.651000
24.403081	1.523368	1.527739	602.151000
24.423364	1.561335	1.528446	602.651000
24.445940	1.599019	1.529294	603.151000
24.467615	1.636037	1.530122	603.651000
24.489683	1.672960	1.531039	604.151000
24.510404	1.709279	1.531911	604.651000
24.530727	1.745447	1.532916	605.151000
24.552777	1.780936	1.533831	605.651000
24.574217	1.815553	1.534787	606.151000
24.598650	1.849801	1.536025	606.651000
24.620977	1.883276	1.537264	607.151000
24.641731	1.915290	1.538451	607.651000
24.664050	1.947135	1.539813	608.151000
24.685517	1.978869	1.541296	608.652000
24.708765	2.010742	1.542669	609.151000
24.729651	2.042302	1.543903	609.651000
24.751435	2.073790	1.545235	610.151000
24.773575	2.104066	1.546717	610.651000
24.796592	2.134172	1.548084	611.151000
24.819501	2.163332	1.549375	611.651000
24.840809	2.191632	1.550748	612.151000
24.862436	2.218864	1.552153	612.651000
24.884055	2.245377	1.553562	613.151000
24.906099	2.271308	1.555170	613.651000
24.928153	2.296903	1.556707	614.151000
24.950001	2.321840	1.558149	614.651000
24.970923	2.345985	1.559642	615.152000
24.992858	2.368884	1.561323	615.651000
25.014845	2.391298	1.562997	616.152000
25.035862	2.413632	1.564472	616.651000
25.057299	2.435890	1.565993	617.152000
25.078548	2.457917	1.567496	617.651000
25.100433	2.478674	1.568853	618.151000
25.122149	2.498584	1.570288	618.652000
25.143975	2.518490	1.571777	619.151000
25.163226	2.537057	1.573277	619.651000
25.185142	2.554191	1.574756	620.151000
25.207766	2.571679	1.576204	620.651000
25.228650	2.588878	1.577758	621.151000
25.251090	2.607135	1.579543	621.652000
25.271054	2.624762	1.581271	622.151000
25.293862	2.641448	1.583067	622.651000
25.313439	2.657201	1.584748	623.151000
25.336657	2.672033	1.586353	623.651000
25.357607	2.685914	1.587784	624.151000
25.378143	2.700420	1.589264	624.651000
25.400271	2.715312	1.590654	625.151000
25.419919	2.730012	1.592108	625.651000
25.440142	2.744010	1.593690	626.151000
25.462172	2.758514	1.595414	626.651000
25.483042	2.772484	1.596990	627.152000
25.505571	2.785382	1.598592	627.651000
25.525379	2.798248	1.600404	628.151000
25.544541	2.811267	1.602203	628.652000
25.565277	2.824558	1.603697	629.151000
25.587743	2.836722	1.605220	629.652000
25.607517	2.848784	1.606689	630.151000
25.627677	2.860529	1.608103	630.651000
25.647581	2.871828	1.609630	631.151000
25.669426	2.881718	1.611154	631.651000
25.691514	2.891859	1.612678	632.151000
25.712897	2.902153	1.614257	632.651000
25.735166	2.911420	1.615793	633.151000
25.757172	2.921417	1.617212	633.651000
25.778859	2.930724	1.618775	634.151000
25.802096	2.939481	1.620328	634.651000
25.822008	2.949471	1.621977	635.151000
25.842957	2.959454	1.623554	635.651000
25.864638	2.968455	1.625160	636.151000
25.885062	2.976313	1.626774	636.651000
25.905906	2.983107	1.628476	637.151000
25.927902	2.990338	1.630274	637.651000
25.952179	2.997430	1.632176	638.151000
25.973681	3.005456	1.633935	638.652000
25.995130	3.014016	1.635458	639.151000
26.016089	3.022762	1.636883	639.651000
26.033155	3.031150	1.638356	640.151000
26.055948	3.039280	1.639829	640.652000
26.078079	3.047423	1.641280	641.151000
26.100788	3.054639	1.642803	641.651000
26.122408	3.061846	1.644490	642.151000
26.142727	3.068265	1.646035	642.652000
26.164127	3.073501	1.647784	643.151000
26.183700	3.079157	1.649545	643.651000
26.203940	3.084839	1.651354	644.152000
26.222027	3.091251	1.652881	644.651000
26.244751	3.098496	1.654309	645.151000
26.268700	3.105013	1.655743	645.651000
26.294643	3.111119	1.657254	646.151000
26.317840	3.116520	1.658714	646.651000
26.336179	3.121225	1.660315	647.151000
26.358157	3.126676	1.661890	647.651000
26.389152	3.132889	1.663372	648.151000
26.405377	3.138956	1.664948	648.652000
26.423568	3.144432	1.666705	649.151000
26.442312	3.148757	1.668352	649.651000
26.459630	3.153255	1.669967	650.151000
26.478995	3.157846	1.671662	650.652000
26.504462	3.161839	1.673360	651.151000
26.520650	3.165402	1.675148	651.651000
26.542134	3.168754	1.676815	652.151000
26.565936	3.172550	1.678377	652.652000
26.588696	3.176630	1.680098	653.152000
26.609177	3.180338	1.681715	653.651000
26.630501	3.184246	1.683583	654.151000
26.653029	3.187839	1.685248	654.651000
26.671647	3.190671	1.686938	655.151000
26.694010	3.192984	1.688488	655.651000
26.716890	3.195709	1.690066	656.151000
26.735900	3.198610	1.691497	656.651000
26.758286	3.201455	1.692998	657.151000
26.777283	3.204219	1.694643	657.651000
26.801196	3.206914	1.696347	658.151000
26.823224	3.210040	1.697964	658.651000
26.842776	3.213136	1.699702	659.151000
26.867423	3.215296	1.701366	659.651000
26.892398	3.217720	1.703047	660.151000
26.910571	3.219953	1.704733	660.652000
26.931646	3.221778	1.706412	661.151000
26.953372	3.223396	1.708156	661.651000
26.977463	3.225533	1.709887	662.151000
26.997662	3.227063	1.711602	662.652000
27.019824	3.228055	1.713320	663.151000
27.042290	3.229079	1.715025	663.651000
27.064706	3.229467	1.716810	664.152000
27.087102	3.230649	1.718593	664.651000
27.108695	3.231774	1.720412	665.152000
27.130758	3.232061	1.722007	665.651000
27.154376	3.232023	1.723489	666.151000
27.178860	3.232654	1.725018	666.651000
27.199158	3.232820	1.726720	667.151000
27.223035	3.233519	1.728401	667.651000
27.243030	3.234188	1.729958	668.152000
27.264404	3.235739	1.731490	668.651000
27.285403	3.236513	1.733113	669.151000
27.307586	3.236753	1.734776	669.651000
27.330712	3.237234	1.736555	670.151000
27.355945	3.237084	1.738347	670.651000
27.377799	3.235762	1.740115	671.151000
27.399426	3.234097	1.741940	671.651000
27.420065	3.232834	1.743796	672.151000
27.441931	3.232019	1.745736	672.651000
27.462933	3.230693	1.747760	673.151000
27.484064	3.229148	1.749785	673.652000
27.505335	3.227711	1.751680	674.152000
27.528734	3.227132	1.753417	674.651000
27.552696	3.226284	1.755166	675.151000
27.573784	3.225183	1.756884	675.651000
27.592543	3.223473	1.758710	676.151000
27.613588	3.221050	1.760548	676.651000
27.636252	3.219734	1.762143	677.151000
27.657651	3.217650	1.763599	677.651000
27.678287	3.215428	1.765020	678.151000
27.698512	3.212907	1.766689	678.651000
27.719761	3.210506	1.768474	679.151000
27.742049	3.208119	1.770389	679.652000
27.764421	3.205668	1.772255	680.151000
27.784429	3.203141	1.774081	680.651000
27.805451	3.201212	1.775876	681.151000
27.826996	3.198867	1.777981	681.651000
27.848346	3.196023	1.779810	682.151000
27.870547	3.193404	1.781574	682.651000
27.892960	3.191614	1.783259	683.151000
27.914551	3.189731	1.784975	683.651000
27.937038	3.187690	1.786643	684.152000
27.958274	3.185175	1.788355	684.651000
27.979305	3.182270	1.789989	685.151000
28.000962	3.178741	1.791765	685.651000
28.022260	3.175240	1.793607	686.151000
28.044717	3.172286	1.795371	686.651000
28.066733	3.170396	1.797130	687.151000
28.087750	3.167539	1.798907	687.651000
28.109464	3.163923	1.800728	688.152000
28.130601	3.160739	1.802674	688.652000
28.151761	3.157108	1.804526	689.151000
28.172301	3.152842	1.806440	689.652000
28.193311	3.149046	1.808441	690.151000
28.214211	3.145118	1.810373	690.651000
28.235761	3.141109	1.812244	691.151000
28.256137	3.138016	1.814069	691.651000
28.275723	3.133639	1.815940	692.151000
28.296756	3.129666	1.817704	692.651000
28.319019	3.125892	1.819315	693.151000
28.341772	3.122029	1.821052	693.652000
28.364412	3.117796	1.822870	694.151000
28.385206	3.113408	1.824652	694.651000
28.406905	3.108531	1.826425	695.151000
28.428969	3.104048	1.828092	695.651000
28.451215	3.100006	1.829839	696.151000
28.473893	3.095498	1.831708	696.651000
28.495367	3.090486	1.833711	697.151000
28.517050	3.085322	1.835714	697.651000
28.540977	3.079496	1.837814	698.152000
28.562613	3.074277	1.839765	698.651000
28.584078	3.069049	1.841641	699.151000
28.607376	3.063237	1.843523	699.652000
28.630952	3.057411	1.845390	700.151000
28.652524	3.052121	1.847277	700.651000
28.673544	3.047918	1.849174	701.151000
28.695422	3.042915	1.851072	701.651000
28.719055	3.037706	1.853114	702.151000
28.741891	3.032473	1.855285	702.651000
28.766333	3.027434	1.857298	703.151000
28.788806	3.021974	1.859360	703.652000
28.810631	3.015850	1.861407	704.151000
28.832003	3.008976	1.863506	704.651000
28.855053	3.001755	1.865583	705.151000
28.877410	2.994523	1.867520	705.651000
28.899686	2.988263	1.869497	706.151000
28.919849	2.981705	1.871417	706.651000
28.941702	2.975901	1.873398	707.151000
28.963382	2.969329	1.875489	707.651000
28.985178	2.962565	1.877473	708.152000
29.007742	2.955460	1.879365	708.651000
29.029321	2.947549	1.881205	709.152000
29.050716	2.939361	1.883125	709.652000
29.072943	2.931006	1.885120	710.151000
29.096276	2.922850	1.887035	710.651000
29.117765	2.914432	1.888887	711.151000
29.139459	2.907017	1.890560	711.651000
29.161804	2.899948	1.892329	712.151000
29.184913	2.892965	1.894209	712.652000
29.209411	2.884522	1.896005	713.151000
29.230650	2.875461	1.898050	713.652000
29.252990	2.866702	1.899960	714.151000
29.274332	2.856858	1.902023	714.652000
29.296378	2.846810	1.904088	715.152000
29.318598	2.837111	1.905957	715.651000
29.340717	2.827234	1.907818	716.152000
29.364145	2.817189	1.909705	716.651000
29.384708	2.806965	1.911620	717.151000
29.407053	2.797884	1.913448	717.651000
29.428949	2.788643	1.915444	718.151000
29.450841	2.778957	1.917346	718.651000
29.474115	2.768006	1.919125	719.151000
29.499245	2.756373	1.921006	719.651000
29.521859	2.744449	1.922929	720.151000
29.543266	2.733526	1.924741	720.651000
29.566398	2.722212	1.926523	721.151000
29.588989	2.710690	1.928330	721.651000
29.611929	2.699000	1.930064	722.151000
29.636649	2.687140	1.931808	722.651000
29.657736	2.675603	1.933409	723.151000
29.678728	2.663311	1.935015	723.652000
29.699946	2.651107	1.936682	724.151000
29.721807	2.639185	1.938413	724.651000
29.742614	2.627345	1.940224	725.152000
29.764623	2.614380	1.941953	725.651000
29.788552	2.600257	1.943690	726.152000
29.809849	2.586045	1.945439	726.651000
29.831915	2.571443	1.947271	727.151000
29.853656	2.557857	1.948946	727.651000
29.876672	2.544376	1.950728	728.151000
29.899761	2.530931	1.952449	728.651000
29.924055	2.518406	1.954188	729.152000
29.947162	2.505845	1.955615	729.651000
29.969270	2.492917	1.956918	730.151000
29.991217	2.478777	1.958066	730.651000
30.013657	2.463750	1.959380	731.151000
30.035763	2.449161	1.960613	731.652000
30.059506	2.434807	1.961753	732.151000
30.082028	2.420979	1.963201	732.651000
30.103644	2.406741	1.964629	733.151000
30.123545	2.392280	1.966093	733.652000
30.145279	2.378601	1.967249	734.151000
30.167202	2.364850	1.968245	734.651000
30.189633	2.351095	1.969375	735.152000
30.212690	2.337580	1.970563	735.651000
30.234140	2.323554	1.971630	736.151000
30.257208	2.308685	1.972895	736.651000
30.279611	2.294581	1.974084	737.151000
30.301657	2.280280	1.975176	737.651000
30.323499	2.266679	1.976295	738.151000
30.347309	2.253497	1.977233	738.651000
30.371066	2.240176	1.978145	739.152000
30.392937	2.226775	1.979177	739.651000
30.416846	2.213344	1.980174	740.151000
30.437769	2.200687	1.981167	740.651000
30.459735	2.188057	1.982340	741.151000
30.481909	2.175390	1.983379	741.651000
30.505597	2.163015	1.984086	742.151000
30.527261	2.150352	1.984910	742.651000
30.548019	2.137895	1.985779	743.151000
30.569220	2.126655	1.986685	743.651000
30.592650	2.115765	1.987369	744.151000
30.613597	2.104953	1.987954	744.651000
30.638620	2.092942	1.988597	745.152000
30.660824	2.081842	1.989183	745.651000
30.680661	2.071462	1.989742	746.151000
30.704968	2.062208	1.990516	746.651000
30.726724	2.053318	1.991369	747.151000
30.747791	2.044468	1.992085	747.651000
30.771286	2.035896	1.992558	748.151000
30.793501	2.027101	1.992952	748.651000
30.821488	2.018855	1.993469	749.152000
30.842962	2.010416	1.994077	749.651000
30.865947	2.002221	1.994867	750.152000
30.883661	1.994339	1.995491	750.651000
30.905957	1.986983	1.996069	751.151000
30.927704	1.979155	1.996747	751.651000
30.949902	1.971634	1.997276	752.151000
30.966736	1.965255	1.997897	752.651000
30.986251	1.959737	1.998366	753.151000
31.009740	1.954874	1.998832	753.651000
31.030747	1.949980	1.999238	754.151000
31.054133	1.946386	1.999434	754.651000
31.075500	1.943608	1.999572	755.151000
31.098164	1.941082	1.999872	755.652000
31.122658	1.938791	2.000338	756.151000
31.146338	1.937185	2.000765	756.651000
31.180084	1.935817	2.001083	757.151000
31.199655	1.934582	2.001403	757.651000
31.214432	1.933244	2.001851	758.151000
31.232698	1.933274	2.002272	758.651000
31.254680	1.933175	2.002434	759.152000
31.277346	1.932960	2.002572	759.651000
31.296560	1.933052	2.002867	760.151000
31.321330	1.933574	2.003327	760.652000
31.349647	1.934886	2.003788	761.151000
31.367899	1.936645	2.004140	761.651000
31.391916	1.939612	2.004320	762.151000
31.412405	1.942787	2.004545	762.651000
31.435311	1.947118	2.004970	763.151000
31.458035	1.952249	2.005332	763.651000
31.486582	1.957497	2.005663	764.151000
31.502348	1.962630	2.006078	764.652000
31.523384	1.968727	2.006530	765.151000
31.546136	1.975020	2.006891	765.652000
31.570193	1.981247	2.007255	766.151000
31.594293	1.988123	2.007643	766.651000
31.619742	1.995906	2.007997	767.151000
31.633300	2.004849	2.008372	767.651000
31.657359	2.014804	2.008682	768.151000
31.677594	2.025071	2.009101	768.651000
31.698142	2.035600	2.009390	769.151000
31.718740	2.045788	2.009827	769.651000
31.744336	2.056457	2.010281	770.151000
31.769055	2.067486	2.010760	770.653000
31.786220	2.079511	2.011063	771.151000
31.811456	2.092911	2.011403	771.651000
31.832932	2.106021	2.011791	772.151000
31.859738	2.119134	2.012180	772.651000
31.887390	2.132732	2.012713	773.151000
31.910542	2.146596	2.013361	773.651000
31.932647	2.161245	2.014069	774.151000
31.953642	2.177117	2.014806	774.652000
31.982204	2.193611	2.015537	775.151000
32.002076	2.211532	2.016163	775.651000
32.023001	2.229883	2.016712	776.151000
32.049960	2.247972	2.017296	776.651000
32.068253	2.266662	2.017989	777.151000
32.086399	2.286264	2.018617	777.651000
32.107178	2.305444	2.019306	778.151000
32.130864	2.325044	2.020051	778.651000
32.152186	2.344936	2.020757	779.151000
32.176074	2.364935	2.021529	779.651000
32.200513	2.386032	2.022326	780.151000
32.222220	2.406119	2.023279	780.651000
32.241870	2.426792	2.024240	781.152000
32.264086	2.447878	2.025198	781.651000
32.286733	2.469182	2.026225	782.151000
32.311676	2.490806	2.027366	782.651000
32.335051	2.511980	2.028425	783.151000
32.355199	2.533505	2.029692	783.652000
32.375890	2.554657	2.030930	784.151000
32.398225	2.576300	2.032149	784.652000
32.423576	2.599142	2.033111	785.151000
32.445302	2.621872	2.034127	785.651000
32.467852	2.644800	2.035099	786.152000
32.489307	2.667754	2.036268	786.651000
32.511761	2.689720	2.037552	787.151000
32.534494	2.711383	2.038805	787.651000
32.558006	2.733963	2.040049	788.151000
32.581688	2.756595	2.041456	788.651000
32.604651	2.778617	2.042845	789.151000
32.625820	2.801425	2.044333	789.651000
32.648049	2.824826	2.045820	790.151000
32.668939	2.847318	2.047219	790.651000
32.690977	2.870134	2.048467	791.152000
32.713511	2.892331	2.049628	791.651000
32.737202	2.913883	2.050943	792.151000
32.758733	2.934599	2.052271	792.651000
32.780400	2.955463	2.053567	793.151000
32.802441	2.977138	2.054975	793.652000
32.824211	2.998155	2.056477	794.151000
32.848929	3.017941	2.058026	794.652000
32.871737	3.038144	2.059458	795.151000
32.894657	3.057730	2.060965	795.651000
32.916816	3.076402	2.062526	796.151000
32.938438	3.095516	2.063953	796.651000
32.959494	3.115100	2.065423	797.151000
32.982097	3.134213	2.067028	797.651000
33.007398	3.153405	2.068784	798.151000
33.029893	3.171769	2.070603	798.651000
33.051699	3.189174	2.072326	799.151000
33.073710	3.206499	2.074014	799.651000
33.096353	3.223453	2.075663	800.151000
33.118786	3.239681	2.077350	800.651000
33.140242	3.254498	2.079123	801.152000
33.162253	3.268988	2.080894	801.651000
33.184866	3.283614	2.082506	802.151000
33.207530	3.298895	2.084034	802.651000
33.229687	3.314386	2.085573	803.151000
33.251584	3.329349	2.087242	803.651000
33.273184	3.343864	2.088919	804.151000
33.297854	3.356515	2.090735	804.651000
33.320517	3.368917	2.092361	805.151000
33.343402	3.381223	2.093902	805.651000
33.366027	3.393668	2.095514	806.151000
33.387866	3.405499	2.097134	806.651000
33.411679	3.417267	2.098690	807.151000
33.433281	3.428320	2.100385	807.651000
33.453820	3.438895	2.102161	808.151000
33.475330	3.449540	2.103886	808.651000
33.497697	3.460289	2.105523	809.151000
33.519658	3.471643	2.107167	809.651000
33.540821	3.481900	2.108986	810.152000
33.561820	3.491880	2.110725	810.651000
33.583026	3.501683	2.112359	811.151000
33.605416	3.510251	2.114081	811.651000
33.627563	3.518244	2.115859	812.151000
33.649078	3.525968	2.117600	812.651000
33.670960	3.533085	2.119187	813.151000
33.694726	3.539995	2.120762	813.651000
33.717059	3.546536	2.122415	814.151000
33.738672	3.553939	2.124155	814.651000
33.761107	3.562040	2.126009	815.151000
33.784518	3.569595	2.128007	815.652000
33.807425	3.575927	2.129963	816.151000
33.829155	3.581806	2.131653	816.652000
33.851546	3.588285	2.133164	817.151000
33.875233	3.594550	2.134768	817.651000
33.900072	3.599447	2.136395	818.151000
33.922683	3.604159	2.138083	818.651000
33.944397	3.609746	2.139830	819.151000
33.965881	3.614931	2.141537	819.651000
33.988852	3.620116	2.143240	820.152000
34.012490	3.625309	2.145005	820.651000
34.034431	3.629578	2.146687	821.151000
34.057415	3.634039	2.148425	821.651000
34.079419	3.638464	2.150039	822.151000
34.101421	3.642185	2.151744	822.651000
34.123155	3.646222	2.153439	823.151000
34.146176	3.651038	2.155163	823.652000
34.170189	3.655297	2.156981	824.151000
34.194925	3.658806	2.158793	824.651000
34.216688	3.662682	2.160610	825.151000
34.238210	3.666572	2.162290	825.651000
34.260253	3.669548	2.163734	826.151000
34.283745	3.672424	2.165343	826.652000
34.306960	3.674688	2.166931	827.151000
34.330019	3.675916	2.168690	827.652000
34.352501	3.678055	2.170433	828.151000
34.375382	3.681013	2.172228	828.651000
34.397737	3.683535	2.173953	829.151000
34.423079	3.686142	2.175707	829.651000
34.446586	3.688113	2.177577	830.152000
34.469522	3.689810	2.179343	830.651000
34.491341	3.691314	2.181172	831.151000
34.513775	3.692528	2.183000	831.651000
34.536290	3.694386	2.184589	832.152000
34.559175	3.695927	2.186140	832.651000
34.581964	3.697404	2.187831	833.151000
34.604221	3.698144	2.189534	833.651000
34.626206	3.698710	2.191094	834.151000
34.646804	3.699369	2.192643	834.651000
34.668268	3.701140	2.194358	835.151000
34.689410	3.703629	2.196047	835.652000
34.711355	3.705552	2.197814	836.151000
34.732731	3.705400	2.199486	836.652000
34.754208	3.705233	2.201148	837.151000
34.776889	3.704980	2.202659	837.652000
34.798266	3.704878	2.204223	838.151000
34.819532	3.704468	2.205905	838.651000
34.840943	3.704680	2.207739	839.152000
34.862595	3.704834	2.209495	839.651000
34.884357	3.704560	2.211227	840.151000
34.907000	3.704273	2.212888	840.651000
34.929081	3.704453	2.214582	841.152000
34.951326	3.704330	2.216192	841.651000
34.974154	3.703922	2.217831	842.151000
34.994961	3.702282	2.219418	842.651000
35.016776	3.700396	2.221011	843.151000
35.038024	3.698932	2.222755	843.651000
35.060832	3.698153	2.224298	844.151000
35.083864	3.697862	2.225753	844.651000
35.106942	3.697196	2.227339	845.151000
35.127401	3.695918	2.228932	845.652000
35.149224	3.694352	2.230562	846.151000
35.170322	3.692181	2.232092	846.652000
35.191126	3.690415	2.233686	847.151000
35.212368	3.688449	2.235333	847.651000
35.235294	3.686671	2.237183	848.152000
35.259434	3.684112	2.238855	848.651000
35.280743	3.681320	2.240351	849.152000
35.301720	3.677989	2.241843	849.651000
35.322549	3.674656	2.243423	850.151000
35.345646	3.671426	2.244907	850.651000
35.367263	3.668625	2.246642	851.151000
35.391452	3.666138	2.248215	851.651000
35.413754	3.663226	2.249800	852.152000
35.436978	3.659704	2.251390	852.651000
35.460480	3.656467	2.252961	853.152000
35.479000	3.652892	2.254613	853.651000
35.499707	3.649199	2.256269	854.151000
35.519245	3.645470	2.257844	854.651000
35.539386	3.642194	2.259544	855.151000
35.562593	3.638959	2.261289	855.652000
35.584486	3.635711	2.263110	856.151000
35.608169	3.633012	2.264790	856.652000
35.629080	3.630738	2.266457	857.151000
35.649238	3.627568	2.268198	857.652000
35.672116	3.624038	2.269847	858.151000
35.693934	3.620836	2.271337	858.651000
35.713330	3.617032	2.272721	859.152000
35.737359	3.613783	2.274210	859.651000
35.763270	3.611403	2.275655	860.152000
35.781520	3.608231	2.277155	860.651000
35.798711	3.604696	2.278664	861.151000
35.818185	3.600549	2.280161	861.651000
35.838636	3.597045	2.281822	862.152000
35.859363	3.593317	2.283382	862.651000
35.883450	3.591804	2.284977	863.151000
35.912312	3.589634	2.286541	863.651000
35.928660	3.586120	2.288058	864.151000
35.953005	3.582661	2.289698	864.651000
35.978154	3.579129	2.291334	865.151000
35.995100	3.574918	2.292991	865.652000
36.012658	3.571048	2.294551	866.151000
36.033522	3.568184	2.296074	866.652000
36.053341	3.565694	2.297713	867.151000
36.072884	3.563257	2.299392	867.651000
36.091862	3.560838	2.301104	868.151000
36.113333	3.558251	2.302710	868.652000
36.133887	3.555064	2.304302	869.151000
36.153964	3.551438	2.306042	869.651000
36.175114	3.548651	2.307670	870.151000
36.200547	3.545297	2.309212	870.651000
36.222789	3.540565	2.310696	871.152000
36.254167	3.536150	2.312288	871.651000
36.268788	3.531763	2.314047	872.152000
36.285514	3.528228	2.315713	872.651000
36.319360	3.525043	2.317122	873.151000
36.337752	3.522137	2.318529	873.651000
36.353992	3.520342	2.319930	874.151000
36.380858	3.518466	2.321497	874.651000
36.400175	3.515829	2.323301	875.151000
36.427187	3.512755	2.325058	875.651000
36.449034	3.509264	2.326732	876.151000
36.469029	3.506100	2.328415	876.652000
36.488999	3.502719	2.329878	877.151000
36.508510	3.500243	2.331325	877.652000
36.531310	3.496767	2.332880	878.151000
36.552667	3.492682	2.334476	878.652000
36.573077	3.488876	2.336047	879.151000
36.592307	3.485239	2.337598	879.651000
36.606867	3.481138	2.339107	880.151000
36.631604	3.476170	2.340731	880.651000
36.645337	3.470581	2.342327	881.152000
36.663702	3.465614	2.344009	881.651000
36.684758	3.461155	2.345464	882.152000
36.709267	3.457126	2.346871	882.651000
36.724732	3.453397	2.348177	883.152000
36.748817	3.449416	2.349643	883.652000
36.770124	3.443629	2.351353	884.151000
36.786123	3.437348	2.353030	884.651000
36.808003	3.431912	2.354609	885.151000
36.832587	3.427162	2.355975	885.652000
36.852247	3.422265	2.357372	886.151000
36.870595	3.416548	2.358766	886.652000
36.893331	3.411185	2.360217	887.151000
36.914644	3.406516	2.361681	887.652000
36.936183	3.401837	2.363274	888.151000
36.953882	3.397684	2.364829	888.652000
36.974399	3.394677	2.366255	889.151000
36.999903	3.391573	2.367660	889.651000
37.018242	3.386401	2.369065	890.152000
37.038268	3.380993	2.370518	890.651000
37.061088	3.375701	2.372038	891.152000
37.083498	3.370573	2.373624	891.651000
37.102964	3.365604	2.375189	892.151000
37.128590	3.360765	2.376823	892.651000
37.144955	3.356722	2.378475	893.151000
37.167383	3.353658	2.380242	893.651000
37.188154	3.350113	2.381883	894.152000
37.204401	3.345574	2.383637	894.651000
37.228238	3.341386	2.385256	895.151000
37.248738	3.336152	2.386790	895.651000
37.270028	3.333158	2.388260	896.151000
37.289401	3.329578	2.389773	896.651000
37.312994	3.326485	2.391183	897.151000
37.335944	3.322856	2.392615	897.651000
37.355539	3.318279	2.394118	898.151000
37.376544	3.313893	2.395659	898.651000
37.396493	3.308764	2.397222	899.151000
37.420535	3.303226	2.398806	899.651000
37.439716	3.296236	2.400337	900.152000
37.460740	3.290176	2.402032	900.651000
37.481586	3.284660	2.403907	901.151000
37.504035	3.279212	2.405641	901.651000
37.523615	3.274915	2.407360	902.151000
37.545477	3.270835	2.409052	902.651000
37.566187	3.265178	2.410642	903.151000
37.586282	3.259560	2.412384	903.651000
37.606196	3.253794	2.414001	904.152000
37.627613	3.247675	2.415590	904.652000
37.648300	3.242457	2.416992	905.151000
37.670478	3.238527	2.418290	905.651000
37.693165	3.235755	2.419619	906.151000
37.713851	3.232642	2.421072	906.652000
37.735313	3.228187	2.422589	907.151000
37.756955	3.222224	2.424017	907.651000
37.779858	3.217010	2.425601	908.151000
37.800565	3.211155	2.427302	908.651000
37.822335	3.204919	2.428980	909.151000
37.843895	3.198599	2.430611	909.651000
37.867477	3.192891	2.432325	910.152000
37.888626	3.187631	2.433823	910.651000
37.911167	3.182747	2.435447	911.151000
37.933588	3.177742	2.437043	911.651000
37.956241	3.173726	2.438729	912.151000
37.978079	3.170165	2.440510	912.651000
38.001862	3.166291	2.442419	913.151000
38.024649	3.162610	2.444225	913.651000
38.047739	3.158677	2.446041	914.152000
38.070197	3.153349	2.447742	914.652000
38.090288	3.148402	2.449238	915.151000
38.114315	3.142760	2.450818	915.651000
38.135071	3.136538	2.452406	916.151000
38.155203	3.129754	2.453951	916.652000
38.177377	3.120289	2.455463	917.151000
38.198719	3.110283	2.457021	917.652000
38.221294	3.102251	2.458723	918.151000
38.242151	3.095161	2.460311	918.651000
38.263885	3.090158	2.462068	919.151000
38.286295	3.085511	2.463649	919.651000
38.308923	3.079643	2.465358	920.152000
38.330182	3.071991	2.467064	920.651000
38.354276	3.064779	2.468788	921.152000
38.378138	3.059234	2.470483	921.651000
38.400348	3.052536	2.472300	922.151000
38.422665	3.044481	2.474086	922.651000
38.444997	3.036635	2.475760	923.152000
38.467930	3.029447	2.477476	923.651000
38.492564	3.020284	2.479420	924.152000
38.514800	3.010287	2.481439	924.651000
38.536351	3.000373	2.483305	925.152000
38.560390	2.990936	2.485005	925.651000
38.583001	2.981778	2.486628	926.151000
38.604514	2.972475	2.488178	926.652000
38.623619	2.964274	2.489821	927.151000
38.644379	2.956549	2.491551	927.651000
38.667126	2.948179	2.493235	928.151000
38.689899	2.939416	2.494986	928.652000
38.712481	2.931499	2.496679	929.151000
38.733963	2.923662	2.498310	929.651000
38.756169	2.915267	2.499870	930.151000
38.778980	2.905720	2.501552	930.651000
38.802061	2.896076	2.503198	931.151000
38.824222	2.886365	2.504925	931.651000
38.847852	2.877106	2.506683	932.151000
38.870776	2.868654	2.508483	932.651000
38.894659	2.861133	2.510260	933.151000
38.916675	2.853976	2.512012	933.651000
38.938916	2.845691	2.513834	934.152000
38.962190	2.836639	2.515595	934.651000
38.986035	2.827635	2.517392	935.151000
39.007840	2.819244	2.519236	935.651000
39.029759	2.810976	2.521064	936.151000
39.051700	2.801588	2.522777	936.651000
39.074692	2.791513	2.524483	937.151000
39.099008	2.781381	2.526089	937.651000
39.120303	2.770101	2.527717	938.151000
39.144034	2.757053	2.529705	938.651000
39.164731	2.744284	2.531606	939.151000
39.186492	2.732119	2.533591	939.652000
39.207179	2.720821	2.535386	940.151000
39.229421	2.710675	2.537084	940.651000
39.252450	2.700740	2.539064	941.151000
39.276154	2.690566	2.541058	941.651000
39.298521	2.679909	2.542948	942.152000
39.320267	2.669854	2.544699	942.651000
39.343890	2.661599	2.546492	943.151000
39.365522	2.655040	2.548056	943.651000
39.387766	2.647063	2.549769	944.152000
39.409736	2.638111	2.551464	944.651000
39.432101	2.630122	2.553237	945.151000
39.453402	2.623739	2.554984	945.652000
39.474913	2.615820	2.556866	946.151000
39.496666	2.606478	2.558649	946.652000
39.518245	2.597404	2.560360	947.151000
39.540674	2.589734	2.562203	947.651000
39.562552	2.581972	2.563946	948.151000
39.585751	2.573246	2.565702	948.651000
39.609275	2.565848	2.567368	949.151000
39.632522	2.558579	2.569382	949.652000
39.656466	2.549807	2.571255	950.151000
39.678702	2.540903	2.573051	950.651000
39.702389	2.531930	2.574959	951.152000
39.725852	2.522913	2.576990	951.651000
39.748762	2.514356	2.579074	952.152000
39.771015	2.506614	2.580943	952.651000
39.793338	2.497565	2.582811	953.151000
39.816138	2.488448	2.584640	953.651000
39.839874	2.479781	2.586468	954.151000
39.864061	2.471566	2.588530	954.651000
39.887249	2.463188	2.590597	955.151000
39.908992	2.453656	2.592624	955.651000
39.931026	2.444033	2.594603	956.151000
39.953985	2.436513	2.596510	956.652000
39.977590	2.430063	2.598487	957.151000
40.001096	2.422369	2.600371	957.651000
40.013730	2.412425	2.602159	958.151000
40.012416	2.401300	2.604137	958.652000
40.011701	2.389959	2.606181	959.151000
40.011052	2.378761	2.608049	959.652000
40.010372	2.369975	2.609687	960.151000
40.010167	2.362476	2.610974	960.652000
40.010068	2.357521	2.611957	961.151000
40.009671	2.354492	2.612958	961.651000
40.009784	2.351477	2.613879	962.151000
40.009836	2.348591	2.614492	962.651000
40.009476	2.345630	2.614841	963.151000
40.009665	2.343281	2.615265	963.651000
40.009654	2.340577	2.615653	964.152000
40.009754	2.338190	2.615759	964.651000
40.009661	2.336432	2.615943	965.151000
40.009713	2.335830	2.616213	965.651000
40.009810	2.335156	2.616483	966.152000
40.009909	2.334294	2.616714	966.652000
40.010153	2.334109	2.616863	967.151000
40.010327	2.334546	2.616877	967.652000
40.010389	2.335342	2.616920	968.151000
40.010421	2.336479	2.616913	968.652000
40.010587	2.336015	2.617045	969.151000
40.010690	2.335448	2.617280	969.652000
40.010831	2.335886	2.617363	970.151000
40.010822	2.335983	2.617381	970.651000
40.011009	2.335183	2.617374	971.152000
40.010997	2.333424	2.617330	971.651000
40.011343	2.331801	2.617222	972.151000
40.011810	2.331603	2.617299	972.651000
40.006702	2.332183	2.617509	973.151000
39.985655	2.332853	2.617655	973.651000
39.965988	2.334023	2.617810	974.151000
39.947180	2.334535	2.617613	974.651000
39.928661	2.335042	2.617072	975.152000
39.910329	2.336946	2.616417	975.651000
39.891385	2.340366	2.615513	976.152000
39.872736	2.345061	2.614374	976.651000
39.854092	2.350536	2.613196	977.151000
39.834302	2.355690	2.612141	977.652000
39.815055	2.361027	2.611094	978.151000
39.796027	2.368226	2.609962	978.652000
39.777670	2.376478	2.608617	979.151000
39.759503	2.385305	2.607009	979.652000
39.739375	2.394172	2.605351	980.151000
39.721835	2.403400	2.603635	980.652000
39.703189	2.411378	2.602068	981.151000
39.686862	2.417458	2.600715	981.651000
39.667926	2.423012	2.599449	982.151000
39.652338	2.429135	2.597934	982.651000
39.631982	2.436651	2.596305	983.151000
39.612773	2.445431	2.594664	983.651000
39.592707	2.454581	2.593145	984.151000
39.578003	2.461742	2.591645	984.651000
39.560715	2.468061	2.590072	985.152000
39.543808	2.474049	2.588491	985.651000
39.522999	2.480807	2.586978	986.151000
39.502316	2.488388	2.585426	986.652000
39.481413	2.496661	2.583917	987.151000
39.462996	2.504633	2.582520	987.652000
39.446496	2.512991	2.581180	988.151000
39.426651	2.520576	2.579757	988.651000
39.407459	2.526807	2.578206	989.151000
39.391248	2.532233	2.576574	989.651000
39.370587	2.537749	2.575148	990.151000
39.351572	2.543718	2.573541	990.651000
39.329247	2.551240	2.571855	991.151000
39.310689	2.558291	2.570247	991.652000
39.290552	2.565674	2.568744	992.152000
39.272016	2.571200	2.567194	992.651000
39.251587	2.576200	2.565503	993.151000
39.233499	2.581929	2.563777	993.651000
39.213734	2.588861	2.562051	994.152000
39.191959	2.596350	2.560519	994.651000
39.174842	2.603740	2.559051	995.151000
39.159964	2.610798	2.557479	995.651000
39.134777	2.617654	2.555985	996.151000
39.124075	2.624194	2.554367	996.651000
39.106735	2.631859	2.552880	997.151000
39.089582	2.639725	2.551395	997.652000
39.067036	2.647419	2.550028	998.151000
39.049720	2.655171	2.548527	998.651000
39.030351	2.663911	2.547113	999.151000
39.011602	2.672871	2.545775	999.651000
38.992227	2.682426	2.544302	1000.151000
38.970996	2.691930	2.542890	1000.651000
38.950861	2.701241	2.541329	1001.151000
38.932559	2.709492	2.539928	1001.651000
38.912335	2.717065	2.538340	1002.151000
38.896552	2.724011	2.536690	1002.651000
38.873792	2.730623	2.535049	1003.151000
38.856709	2.738256	2.533465	1003.651000
38.839061	2.747090	2.531902	1004.152000
38.818953	2.756155	2.530394	1004.651000
38.799379	2.764981	2.528832	1005.152000
38.782461	2.773464	2.527265	1005.651000
38.764832	2.781368	2.525886	1006.152000
38.746013	2.789060	2.524573	1006.651000
38.726593	2.796051	2.523368	1007.151000
38.705475	2.801149	2.521970	1007.652000
38.686222	2.806688	2.520414	1008.151000
38.666329	2.813266	2.518836	1008.651000
38.646829	2.820796	2.517219	1009.151000
38.629245	2.827893	2.515743	1009.652000
38.612168	2.836081	2.514369	1010.151000
38.593077	2.844095	2.512952	1010.652000
38.573523	2.851636	2.511320	1011.151000
38.551586	2.858998	2.509768	1011.652000
38.532063	2.867394	2.508168	1012.151000
38.513874	2.876089	2.506625	1012.651000
38.494365	2.885425	2.505240	1013.152000
38.472329	2.894256	2.503938	1013.651000
38.450487	2.902485	2.502429	1014.152000
38.429104	2.910867	2.500757	1014.651000
38.408238	2.918669	2.499115	1015.152000
38.388083	2.926176	2.497623	1015.651000
38.364863	2.934209	2.496091	1016.152000
38.345374	2.942101	2.494562	1016.651000
38.327715	2.950093	2.493048	1017.151000
38.309512	2.958605	2.491451	1017.651000
38.289981	2.967096	2.489949	1018.151000
38.267650	2.975672	2.488482	1018.651000
38.248704	2.983957	2.486957	1019.151000
38.226178	2.990556	2.485571	1019.651000
38.209959	2.996858	2.484235	1020.151000
38.192007	3.004706	2.482705	1020.652000
38.173688	3.012765	2.481239	1021.151000
38.155373	3.020253	2.479711	1021.651000
38.136438	3.026750	2.478252	1022.151000
38.120530	3.032918	2.476700	1022.651000
38.099185	3.039162	2.475210	1023.152000
38.082460	3.045322	2.473671	1023.651000
38.064119	3.050727	2.472045	1024.152000
38.044058	3.055930	2.470409	1024.651000
38.023274	3.060581	2.468718	1025.151000
38.003766	3.063269	2.467273	1025.651000
37.982869	3.066199	2.465878	1026.151000
37.964314	3.071150	2.464584	1026.651000
37.945173	3.078687	2.463373	1027.151000
37.923364	3.086517	2.462079	1027.651000
37.903070	3.093933	2.460730	1028.151000
37.886015	3.101541	2.459240	1028.651000
37.866138	3.109116	2.457756	1029.151000
37.844502	3.115699	2.456187	1029.652000
37.825604	3.121480	2.454654	1030.151000
37.805514	3.128114	2.453137	1030.651000
37.786887	3.134682	2.451677	1031.151000
37.764193	3.140315	2.450135	1031.651000
37.742040	3.145356	2.448675	1032.151000
37.727245	3.150421	2.447185	1032.652000
37.710833	3.155554	2.445590	1033.152000
37.692414	3.160930	2.443972	1033.651000
37.672621	3.166235	2.442423	1034.151000
37.655872	3.170912	2.440859	1034.651000
37.634149	3.175149	2.439394	1035.151000
37.615979	3.180393	2.437977	1035.651000
37.599133	3.186250	2.436563	1036.151000
37.580609	3.191419	2.435362	1036.651000
37.562479	3.196663	2.433988	1037.152000
37.544027	3.200982	2.432559	1037.651000
37.527014	3.205137	2.431264	1038.151000
37.508085	3.209473	2.429868	1038.651000
37.488132	3.214828	2.428566	1039.151000
37.468676	3.219679	2.427272	1039.652000
37.453167	3.225091	2.425897	1040.151000
37.433378	3.229709	2.424498	1040.652000
37.414937	3.234462	2.422867	1041.151000
37.394446	3.237462	2.421262	1041.651000
37.376413	3.240648	2.419616	1042.151000
37.356552	3.244424	2.418308	1042.651000
37.334265	3.248482	2.417057	1043.152000
37.313598	3.252310	2.415753	1043.651000
37.295000	3.257241	2.414323	1044.152000
37.274936	3.262996	2.412929	1044.651000
37.256245	3.268899	2.411350	1045.152000
37.235637	3.274154	2.409833	1045.651000
37.221406	3.277807	2.408451	1046.152000
37.202843	3.280823	2.407109	1046.651000
37.184278	3.282721	2.405755	1047.152000
37.165528	3.285141	2.404462	1047.651000
37.148162	3.288456	2.403211	1048.152000
37.126701	3.292431	2.401813	1048.652000
37.106905	3.296166	2.400465	1049.151000
37.087337	3.300201	2.399064	1049.652000
37.068385	3.305131	2.397522	1050.151000
37.049686	3.309590	2.395842	1050.652000
37.031353	3.315117	2.394116	1051.151000
37.012044	3.321239	2.392498	1051.652000
36.990246	3.326745	2.390960	1052.151000
36.970799	3.332182	2.389563	1052.651000
36.952677	3.337261	2.388241	1053.152000
36.933904	3.343147	2.386973	1053.651000
36.914764	3.346854	2.385748	1054.151000
36.893832	3.348740	2.384448	1054.651000
36.873826	3.350219	2.383154	1055.151000
36.856263	3.351413	2.381772	1055.651000
36.837240	3.353959	2.380484	1056.152000
36.815833	3.357796	2.379047	1056.651000
36.797648	3.363048	2.377642	1057.152000
36.781652	3.367718	2.376164	1057.651000
36.762749	3.371277	2.374671	1058.151000
36.741935	3.374191	2.373074	1058.652000
36.725285	3.377177	2.371485	1059.151000
36.704839	3.381648	2.370099	1059.651000
36.686297	3.384583	2.368838	1060.151000
36.671091	3.388164	2.367644	1060.651000
36.653630	3.392190	2.366319	1061.151000
36.631325	3.396098	2.364914	1061.652000
36.618505	3.400546	2.363438	1062.151000
36.600331	3.404770	2.361911	1062.652000
36.581421	3.409385	2.360414	1063.151000
36.562552	3.413754	2.358970	1063.652000
36.543162	3.418845	2.357782	1064.151000
36.525318	3.423432	2.356658	1064.651000
36.505890	3.427630	2.355343	1065.152000
36.486764	3.432557	2.353971	1065.651000
36.468673	3.436957	2.352585	1066.151000
36.446770	3.441944	2.351234	1066.651000
36.424684	3.446263	2.349912	1067.151000
36.405934	3.450398	2.348539	1067.651000
36.385005	3.454686	2.347127	1068.151000
36.367609	3.459432	2.345791	1068.651000
36.350827	3.463609	2.344466	1069.151000
36.330918	3.466874	2.343057	1069.651000
36.309487	3.470295	2.341607	1070.151000
36.293343	3.472930	2.339962	1070.651000
36.276312	3.475849	2.338528	1071.151000
36.253657	3.479706	2.337178	1071.651000
36.235656	3.483226	2.336019	1072.151000
36.214483	3.486888	2.334928	1072.652000
36.194950	3.489660	2.333675	1073.151000
36.177667	3.491929	2.332066	1073.652000
36.159664	3.494133	2.330459	1074.151000
36.141983	3.496523	2.328979	1074.651000
36.123359	3.499897	2.327771	1075.152000
36.102362	3.503004	2.326461	1075.651000
36.085848	3.505480	2.325058	1076.151000
36.067184	3.507377	2.323364	1076.651000
36.050388	3.509083	2.321810	1077.151000
36.032639	3.510857	2.320347	1077.651000
36.015279	3.513576	2.319097	1078.151000
35.998563	3.516668	2.317796	1078.651000
35.973956	3.519394	2.316514	1079.151000
35.954641	3.522203	2.315169	1079.651000
35.937852	3.525389	2.313672	1080.151000
35.914444	3.528571	2.312200	1080.651000
35.893858	3.531791	2.310926	1081.151000
35.875436	3.534539	2.309700	1081.652000
35.855559	3.538181	2.308360	1082.151000
35.838596	3.542127	2.307086	1082.652000
35.818613	3.546117	2.305732	1083.151000
35.801765	3.549516	2.304285	1083.652000
35.783955	3.551486	2.302746	1084.152000
35.761347	3.554213	2.301377	1084.651000
35.741330	3.557170	2.300132	1085.152000
35.723567	3.560217	2.298691	1085.651000
35.704053	3.563773	2.297134	1086.151000
35.681828	3.566658	2.295663	1086.651000
35.663107	3.569947	2.294180	1087.151000
35.644525	3.574247	2.292777	1087.651000
35.622440	3.578550	2.291415	1088.151000
35.602949	3.581514	2.289950	1088.651000
35.582570	3.584572	2.288538	1089.152000
35.562996	3.588645	2.287001	1089.652000
35.544844	3.591484	2.285297	1090.151000
35.524313	3.594958	2.283559	1090.651000
35.504893	3.599037	2.282069	1091.151000
35.488423	3.602858	2.280637	1091.652000
35.466424	3.606604	2.279273	1092.151000
35.442630	3.609093	2.277834	1092.651000
35.424120	3.612300	2.276438	1093.151000
35.401434	3.614794	2.274932	1093.651000
35.383217	3.617328	2.273475	1094.152000
35.359796	3.620028	2.272134	1094.651000
35.342228	3.622274	2.270691	1095.151000
35.323109	3.624559	2.269255	1095.651000
35.305673	3.625941	2.267833	1096.151000
35.283926	3.627927	2.266307	1096.651000
35.265885	3.630153	2.264732	1097.152000
35.244990	3.632675	2.263310	1097.651000
35.225018	3.635507	2.261930	1098.152000
35.206054	3.638872	2.260626	1098.651000
35.184827	3.643135	2.259227	1099.152000
35.166495	3.647834	2.257526	1099.651000
35.148599	3.653967	2.255636	1100.151000
35.125100	3.660122	2.253840	1100.652000
35.106941	3.665268	2.252457	1101.151000
35.085527	3.669478	2.251070	1101.652000
35.064532	3.672506	2.249711	1102.151000
35.040621	3.675242	2.248263	1102.652000
35.019423	3.677672	2.246857	1103.151000
35.004077	3.679963	2.245348	1103.651000
34.981965	3.682771	2.243758	1104.152000
34.962925	3.685672	2.242163	1104.651000
34.943066	3.688416	2.240738	1105.151000
34.922405	3.689916	2.239445	1105.651000
34.900064	3.691309	2.238072	1106.151000
34.877770	3.692850	2.236579	1106.651000
34.857614	3.693937	2.235032	1107.151000
34.835085	3.695869	2.233439	1107.651000
34.811760	3.698100	2.231865	1108.152000
34.791064	3.700024	2.230237	1108.651000
34.772581	3.702108	2.228648	1109.152000
34.750129	3.702691	2.226976	1109.652000
34.731443	3.701922	2.225353	1110.151000
34.714721	3.701586	2.224041	1110.652000
34.696317	3.701895	2.222641	1111.151000
34.675019	3.703448	2.221173	1111.652000
34.656600	3.704653	2.219613	1112.151000
34.636573	3.705856	2.218241	1112.651000
34.614439	3.707762	2.216782	1113.151000
34.593060	3.708502	2.215078	1113.651000
34.575519	3.708406	2.213311	1114.151000
34.556546	3.707686	2.211683	1114.651000
34.533037	3.706893	2.210031	1115.151000
34.512996	3.707743	2.208565	1115.651000
34.489077	3.708920	2.207098	1116.151000
34.471498	3.708783	2.205604	1116.651000
34.451218	3.707951	2.204060	1117.152000
34.430480	3.706672	2.202523	1117.651000
34.413721	3.705402	2.201130	1118.151000
34.394986	3.704499	2.199684	1118.651000
34.374417	3.703780	2.198147	1119.151000
34.348063	3.702825	2.196614	1119.652000
34.331663	3.701634	2.194973	1120.151000
34.312106	3.700722	2.193346	1120.652000
34.291461	3.699862	2.191860	1121.151000
34.273118	3.699131	2.190223	1121.651000
34.253727	3.698246	2.188615	1122.151000
34.235128	3.696895	2.187048	1122.651000
34.210159	3.695783	2.185574	1123.151000
34.197250	3.694682	2.184165	1123.651000
34.177048	3.693177	2.182831	1124.151000
34.154582	3.690879	2.181557	1124.652000
34.136261	3.688473	2.180266	1125.151000
34.115928	3.686246	2.178998	1125.651000
34.093403	3.683884	2.177728	1126.151000
34.071483	3.681499	2.176376	1126.651000
34.056202	3.679005	2.174938	1127.152000
34.036763	3.676844	2.173332	1127.651000
34.010898	3.675191	2.171833	1128.151000
33.994125	3.673321	2.170325	1128.651000
33.975443	3.670602	2.168534	1129.151000
33.950500	3.667654	2.166754	1129.651000
33.929663	3.664448	2.165248	1130.151000
33.910308	3.661710	2.163627	1130.652000
33.888353	3.659338	2.162060	1131.151000
33.869036	3.657706	2.160532	1131.651000
33.852157	3.655240	2.158944	1132.151000
33.836488	3.652189	2.157492	1132.651000
33.818584	3.648676	2.156035	1133.151000
33.796829	3.644965	2.154626	1133.652000
33.778577	3.641429	2.153081	1134.151000
33.760753	3.637802	2.151596	1134.652000
33.741997	3.634970	2.149983	1135.152000
33.720054	3.631531	2.148284	1135.651000
33.697835	3.627618	2.146550	1136.152000
33.680684	3.624106	2.145064	1136.651000
33.660834	3.619941	2.143661	1137.152000
33.638822	3.615528	2.142349	1137.651000
33.620477	3.610518	2.140998	1138.151000
33.599698	3.605014	2.139629	1138.651000
33.580420	3.599892	2.138078	1139.151000
33.563516	3.595679	2.136447	1139.651000
33.544352	3.591658	2.134924	1140.152000
33.523272	3.587290	2.133606	1140.651000
33.501589	3.581592	2.132243	1141.151000
33.483683	3.575131	2.130814	1141.652000
33.462864	3.568358	2.129390	1142.151000
33.442960	3.562272	2.127721	1142.651000
33.423163	3.556557	2.126049	1143.151000
33.403716	3.550590	2.124407	1143.652000
33.383735	3.543969	2.122853	1144.151000
33.362747	3.537141	2.121412	1144.651000
33.342911	3.530062	2.119944	1145.151000
33.318237	3.522926	2.118562	1145.651000
33.298624	3.515736	2.117165	1146.152000
33.282918	3.508431	2.115747	1146.651000
33.265286	3.500986	2.114256	1147.152000
33.246701	3.493740	2.112609	1147.651000
33.227652	3.485474	2.110987	1148.151000
33.207431	3.476212	2.109474	1148.651000
33.183560	3.467431	2.107769	1149.152000
33.167207	3.458925	2.106198	1149.651000
33.148836	3.450705	2.104749	1150.152000
33.130262	3.441450	2.103284	1150.651000
33.111022	3.432348	2.101777	1151.151000
33.090561	3.423714	2.100308	1151.651000
33.070623	3.414794	2.098783	1152.151000
33.052652	3.405067	2.097215	1152.651000
33.032983	3.395705	2.095634	1153.151000
33.009804	3.385065	2.094226	1153.652000
32.987334	3.373728	2.092885	1154.151000
32.966476	3.361980	2.091621	1154.651000
32.947355	3.349546	2.090258	1155.151000
32.928220	3.336922	2.088747	1155.651000
32.908145	3.324805	2.087215	1156.152000
32.888451	3.312343	2.085573	1156.651000
32.866801	3.299020	2.084277	1157.151000
32.848321	3.285836	2.082967	1157.651000
32.828033	3.273240	2.081562	1158.151000
32.809644	3.260556	2.079960	1158.651000
32.791971	3.246831	2.078380	1159.151000
32.769449	3.232303	2.076942	1159.651000
32.750652	3.217972	2.075467	1160.152000
32.731801	3.203142	2.074032	1160.651000
32.710951	3.187757	2.072794	1161.152000
32.694004	3.172884	2.071386	1161.651000
32.672810	3.158227	2.069869	1162.151000
32.658015	3.142731	2.068422	1162.652000
32.636425	3.127512	2.067060	1163.151000
32.617157	3.112269	2.065779	1163.651000
32.591867	3.096501	2.064499	1164.151000
32.581085	3.080399	2.063148	1164.651000
32.561874	3.063108	2.061851	1165.151000
32.543467	3.045749	2.060507	1165.651000
32.525297	3.028590	2.059137	1166.152000
32.505258	3.012570	2.057824	1166.651000
32.487595	2.996041	2.056518	1167.151000
32.471814	2.979740	2.055336	1167.651000
32.453766	2.963743	2.054226	1168.152000
32.432617	2.947079	2.053108	1168.651000
32.409528	2.929436	2.051976	1169.152000
32.397880	2.911730	2.050715	1169.651000
32.382102	2.894180	2.049370	1170.152000
32.363402	2.877012	2.048171	1170.651000
32.344349	2.859665	2.046988	1171.152000
32.324298	2.842255	2.045863	1171.652000
32.303891	2.823650	2.044756	1172.151000
32.283629	2.804914	2.043580	1172.652000
32.269192	2.787410	2.042418	1173.151000
32.251596	2.769268	2.041269	1173.651000
32.226901	2.750688	2.040224	1174.151000
32.205164	2.732448	2.039427	1174.651000
32.193870	2.713463	2.038540	1175.151000
32.176548	2.695030	2.037594	1175.651000
32.157604	2.676524	2.036679	1176.152000
32.139246	2.657813	2.035707	1176.651000
32.120068	2.639461	2.034688	1177.151000
32.103442	2.621690	2.033761	1177.651000
32.082733	2.604085	2.032993	1178.151000
32.062338	2.586419	2.032148	1178.651000
32.044261	2.568034	2.031225	1179.152000
32.026337	2.549769	2.030280	1179.651000
32.004761	2.532580	2.029308	1180.152000
31.984889	2.515115	2.028446	1180.651000
31.966005	2.496851	2.027492	1181.151000
31.946756	2.478050	2.026653	1181.652000
31.923591	2.459358	2.025986	1182.151000
31.904803	2.440565	2.025239	1182.651000
31.883505	2.422693	2.024438	1183.151000
31.862265	2.405525	2.023591	1183.651000
31.840421	2.388246	2.022725	1184.151000
31.827493	2.371154	2.021881	1184.651000
31.808108	2.353979	2.021081	1185.151000
31.782332	2.337589	2.020336	1185.652000
31.765423	2.321922	2.019730	1186.151000
31.751641	2.305480	2.019152	1186.652000
31.734097	2.290393	2.018546	1187.152000
31.716301	2.275457	2.017893	1187.651000
31.697612	2.260617	2.017354	1188.152000
31.678543	2.246111	2.016735	1188.651000
31.662651	2.231651	2.016157	1189.152000
31.642706	2.217451	2.015743	1189.651000
31.622555	2.204044	2.015268	1190.151000
31.603344	2.191600	2.014872	1190.651000
31.584020	2.178991	2.014584	1191.151000
31.565013	2.166394	2.014107	1191.652000
31.547094	2.154518	2.013643	1192.151000
31.528903	2.143757	2.013052	1192.651000
31.507590	2.133145	2.012540	1193.151000
31.488553	2.122216	2.011906	1193.651000
31.468573	2.112143	2.011239	1194.151000
31.449826	2.103121	2.010663	1194.651000
31.430255	2.093907	2.010339	1195.151000
31.410490	2.085126	2.010018	1195.652000
31.395554	2.076656	2.009699	1196.151000
31.374669	2.067522	2.009442	1196.652000
31.350232	2.058631	2.009041	1197.152000
31.334348	2.049605	2.008806	1197.651000
31.314044	2.042183	2.008686	1198.152000
31.296223	2.035632	2.008410	1198.651000
31.276540	2.028400	2.007892	1199.152000
31.260380	2.021874	2.007449	1199.651000
31.245811	2.015771	2.007218	1200.151000
31.222717	2.010446	2.006977	1200.651000
31.200498	2.004192	2.006742	1201.151000
31.182462	1.998162	2.006563	1201.652000
31.161149	1.992822	2.006336	1202.152000
31.138164	1.988118	2.006011	1202.651000
31.116638	1.983321	2.005582	1203.151000
31.100555	1.979348	2.005129	1203.651000
31.082343	1.976484	2.004744	1204.151000
31.063955	1.974403	2.004308	1204.652000
31.043371	1.972074	2.003888	1205.151000
31.021368	1.969232	2.003510	1205.652000
31.007209	1.966811	2.003219	1206.151000
30.989348	1.965618	2.002896	1206.651000
30.969765	1.965036	2.002547	1207.152000
30.949867	1.964557	2.002205	1207.651000
30.927638	1.964378	2.001926	1208.152000
30.909576	1.964025	2.001790	1208.651000
30.888306	1.963587	2.001566	1209.151000
30.867834	1.963644	2.001305	1209.651000
30.844086	1.964098	2.000819	1210.151000
30.824657	1.964457	2.000338	1210.651000
30.805052	1.965621	1.999871	1211.152000
30.785799	1.967788	1.999383	1211.651000
30.766461	1.970702	1.999080	1212.151000
30.744971	1.974377	1.998717	1212.651000
30.725888	1.977502	1.998350	1213.151000
30.707355	1.981627	1.998003	1213.651000
30.684252	1.986171	1.997608	1214.151000
30.665426	1.990997	1.997232	1214.652000
30.647549	1.996527	1.997086	1215.151000
30.627937	2.001900	1.996830	1215.652000
30.608190	2.006128	1.996405	1216.151000
30.592727	2.010347	1.995970	1216.651000
30.574657	2.015595	1.995409	1217.152000
30.556074	2.021413	1.994890	1217.651000
30.533504	2.027926	1.994124	1218.152000
30.513939	2.034913	1.993425	1218.651000
30.493881	2.042425	1.992796	1219.151000
30.475862	2.050161	1.992327	1219.651000
30.453074	2.057450	1.991920	1220.151000
30.433204	2.064689	1.991416	1220.651000
30.415197	2.072507	1.991021	1221.152000
30.395713	2.080906	1.990528	1221.651000
30.370559	2.089496	1.989958	1222.152000
30.353525	2.097939	1.989314	1222.652000
30.336509	2.106606	1.988616	1223.151000
30.317210	2.115675	1.987925	1223.652000
30.298023	2.125357	1.987219	1224.151000
30.277472	2.135299	1.986542	1224.652000
30.259602	2.145364	1.985917	1225.151000
30.238152	2.154820	1.985331	1225.651000
30.215335	2.164360	1.984628	1226.151000
30.196830	2.174163	1.984010	1226.651000
30.177463	2.184818	1.983433	1227.151000
30.160006	2.195877	1.982887	1227.652000
30.143567	2.206874	1.982166	1228.151000
30.121415	2.217409	1.981249	1228.651000
30.101454	2.228765	1.980383	1229.151000
30.084137	2.240130	1.979592	1229.651000
30.063034	2.251837	1.978626	1230.152000
30.043588	2.263234	1.977534	1230.651000
30.023826	2.274699	1.976762	1231.152000
30.005560	2.285735	1.975862	1231.651000
29.982043	2.296798	1.975024	1232.152000
29.960373	2.308344	1.974160	1232.652000
29.941224	2.319967	1.973322	1233.151000
29.921209	2.331493	1.972368	1233.652000
29.902335	2.343840	1.971308	1234.151000
29.878556	2.355840	1.970300	1234.652000
29.852286	2.368474	1.969155	1235.151000
29.837722	2.380585	1.968068	1235.651000
29.815918	2.393111	1.966975	1236.151000
29.795460	2.405607	1.965830	1236.651000
29.780184	2.418017	1.964702	1237.151000
29.763572	2.430481	1.963517	1237.652000
29.739921	2.443299	1.962114	1238.151000
29.718112	2.455784	1.960909	1238.651000
29.697893	2.467682	1.959813	1239.151000
29.678161	2.479259	1.958735	1239.651000
29.664136	2.490360	1.957684	1240.152000
29.644150	2.501763	1.956556	1240.651000
29.620878	2.513044	1.955323	1241.152000
29.599811	2.525719	1.954013	1241.651000
29.584395	2.538214	1.952540	1242.151000
29.562387	2.550559	1.951151	1242.651000
29.543650	2.562302	1.949818	1243.151000
29.523308	2.573703	1.948360	1243.652000
29.506586	2.585119	1.946816	1244.151000
29.486816	2.596015	1.945283	1244.651000
29.465290	2.607012	1.943722	1245.151000
29.445722	2.618146	1.942280	1245.651000
29.427639	2.628936	1.940927	1246.151000
29.401416	2.640666	1.939573	1246.652000
29.388388	2.651895	1.938281	1247.151000
29.366450	2.661874	1.936832	1247.651000
29.341406	2.672263	1.935318	1248.151000
29.326968	2.682624	1.933726	1248.651000
29.306619	2.694037	1.931947	1249.151000
29.281803	2.705472	1.930419	1249.651000
29.265769	2.716074	1.928897	1250.151000
29.245494	2.725955	1.927430	1250.651000
29.226858	2.735121	1.925984	1251.152000
29.205760	2.744980	1.924381	1251.651000
29.183230	2.755514	1.922679	1252.152000
29.164730	2.765335	1.920807	1252.651000
29.140522	2.774153	1.919108	1253.151000
29.117296	2.782107	1.917618	1253.652000
29.103433	2.791241	1.916041	1254.151000
29.085279	2.799863	1.914312	1254.651000
29.067376	2.808482	1.912559	1255.151000
29.049430	2.817251	1.910883	1255.651000
29.029972	2.826154	1.909200	1256.151000
29.011189	2.836178	1.907528	1256.652000
28.983969	2.845755	1.905869	1257.151000
28.970584	2.854488	1.904350	1257.651000
28.953949	2.862420	1.902532	1258.151000
28.929772	2.869981	1.900812	1258.651000
28.910993	2.876856	1.899362	1259.152000
28.885197	2.883269	1.897906	1259.651000
28.865120	2.889972	1.896318	1260.151000
28.854437	2.896561	1.894570	1260.651000
28.837378	2.903259	1.892685	1261.151000
28.809159	2.909735	1.890985	1261.651000
28.791319	2.916116	1.889517	1262.151000
28.772242	2.922854	1.887854	1262.651000
28.752022	2.930185	1.885925	1263.151000
28.732257	2.936878	1.884129	1263.651000
28.718785	2.943072	1.882449	1264.151000
28.699573	2.949749	1.880687	1264.651000
28.676462	2.956314	1.879051	1265.151000
28.657701	2.962048	1.877388	1265.652000
28.639059	2.967981	1.875725	1266.151000
28.624105	2.974075	1.873922	1266.652000
28.606142	2.980853	1.872150	1267.151000
28.585846	2.986620	1.870384	1267.651000
28.567297	2.991656	1.868644	1268.151000
28.549981	2.997360	1.866905	1268.651000
28.530251	3.003597	1.865319	1269.152000
28.511128	3.009425	1.863778	1269.651000
28.495610	3.015372	1.862145	1270.151000
28.475279	3.020056	1.860581	1270.651000
28.454958	3.024582	1.858899	1271.151000
28.435117	3.029252	1.857330	1271.651000
28.413635	3.034174	1.855804	1272.151000
28.387662	3.038644	1.854068	1272.651000
28.370507	3.042722	1.852381	1273.152000
28.353998	3.046976	1.850575	1273.652000
28.339670	3.052231	1.848639	1274.151000
28.318749	3.056672	1.846732	1274.651000
28.297232	3.061328	1.845042	1275.151000
28.278369	3.065515	1.843458	1275.652000
28.261110	3.070641	1.841852	1276.151000
28.248432	3.076332	1.840401	1276.652000
28.228533	3.080808	1.838937	1277.151000
28.207945	3.084892	1.837327	1277.652000
28.189442	3.087517	1.835569	1278.151000
28.173002	3.090345	1.833734	1278.651000
28.155502	3.094081	1.831955	1279.151000
28.135964	3.097814	1.830309	1279.651000
28.115897	3.101978	1.828768	1280.151000
28.087709	3.106725	1.827378	1280.651000
28.074661	3.111459	1.825955	1281.152000
28.059684	3.115480	1.824382	1281.651000
28.040102	3.119545	1.822755	1282.151000
28.017861	3.123148	1.821164	1282.651000
27.999113	3.126938	1.819524	1283.151000
27.979108	3.130874	1.817872	1283.651000
27.962553	3.134490	1.816249	1284.151000
27.941047	3.137693	1.814555	1284.651000
27.924547	3.140109	1.813034	1285.151000
27.902644	3.143001	1.811494	1285.652000
27.882532	3.146071	1.809950	1286.151000
27.862917	3.148690	1.808390	1286.651000
27.844553	3.151343	1.806760	1287.151000
27.830153	3.153936	1.805135	1287.651000
27.808231	3.157314	1.803575	1288.151000
27.787145	3.160789	1.801968	1288.651000
27.766420	3.164040	1.800404	1289.151000
27.754079	3.167388	1.798836	1289.651000
27.734890	3.170318	1.797316	1290.151000
27.716279	3.173025	1.795765	1290.651000
27.696721	3.175147	1.794316	1291.151000
27.674753	3.178020	1.792759	1291.651000
27.652525	3.181427	1.790992	1292.152000
27.639767	3.184893	1.789095	1292.651000
27.621013	3.188404	1.787237	1293.152000
27.600698	3.190837	1.785574	1293.651000
27.579711	3.192501	1.784117	1294.151000
27.562074	3.194418	1.782618	1294.652000
27.541593	3.196644	1.780983	1295.151000
27.522610	3.199216	1.779322	1295.651000
27.504166	3.201715	1.777533	1296.151000
27.486750	3.204590	1.775883	1296.651000
27.470557	3.206781	1.774545	1297.151000
27.453805	3.209166	1.773147	1297.651000
27.428597	3.210895	1.771882	1298.151000
27.409898	3.212698	1.770475	1298.651000
27.389237	3.214396	1.768874	1299.152000
27.369305	3.215597	1.767245	1299.651000
27.350310	3.216967	1.765706	1300.151000
27.332255	3.218139	1.764182	1300.651000
27.314114	3.218857	1.762583	1301.152000
27.299653	3.220292	1.761043	1301.651000
27.281683	3.221417	1.759308	1302.152000
27.259182	3.222702	1.757703	1302.651000
27.241698	3.224331	1.756125	1303.151000
27.226415	3.225925	1.754811	1303.651000
27.203265	3.227369	1.753413	1304.151000
27.180902	3.228243	1.752012	1304.652000
27.167600	3.229633	1.750666	1305.151000
27.150685	3.230428	1.749272	1305.651000
27.125620	3.230828	1.747877	1306.151000
27.109352	3.232036	1.746373	1306.651000
27.089353	3.232770	1.744895	1307.151000
27.074872	3.232923	1.743295	1307.651000
27.052315	3.233061	1.741822	1308.151000
27.032504	3.233860	1.740318	1308.652000
27.011026	3.234739	1.738867	1309.151000
26.994711	3.235205	1.737171	1309.651000
26.979092	3.235512	1.735447	1310.151000
26.964797	3.236086	1.733849	1310.651000
26.946930	3.236586	1.732274	1311.152000
26.920876	3.237110	1.730670	1311.651000
26.906837	3.236919	1.729187	1312.152000
26.889782	3.236947	1.727796	1312.651000
26.873139	3.237275	1.726484	1313.151000
26.854134	3.237424	1.725234	1313.651000
26.829524	3.237014	1.723974	1314.151000
26.818945	3.236488	1.722722	1314.651000
26.797015	3.235830	1.721203	1315.152000
26.784064	3.235110	1.719649	1315.651000
26.761742	3.234186	1.718276	1316.151000
26.748739	3.232055	1.716852	1316.651000
26.729949	3.230480	1.715310	1317.151000
26.711673	3.228729	1.713905	1317.651000
26.688697	3.226548	1.712642	1318.151000
26.672442	3.225270	1.711183	1318.652000
26.654451	3.224306	1.709653	1319.151000
26.633307	3.222982	1.708235	1319.651000
26.615351	3.221491	1.706770	1320.151000
26.591932	3.219982	1.705404	1320.651000
26.577871	3.218627	1.703995	1321.152000
26.566085	3.216635	1.702550	1321.651000
26.545187	3.215446	1.701101	1322.152000
26.524599	3.215109	1.699648	1322.651000
26.509949	3.213565	1.698136	1323.151000
26.492777	3.210749	1.696793	1323.651000
26.476566	3.208654	1.695378	1324.151000
26.459338	3.206955	1.694073	1324.651000
26.440381	3.204762	1.692725	1325.151000
26.417605	3.201802	1.691363	1325.651000
26.400271	3.199366	1.689970	1326.151000
26.381742	3.197140	1.688483	1326.651000
26.361625	3.194327	1.686939	1327.151000
26.333585	3.190972	1.685596	1327.652000
26.316915	3.188039	1.684212	1328.151000
26.297040	3.185440	1.682635	1328.652000
26.276458	3.182730	1.681080	1329.151000
26.263870	3.180807	1.679511	1329.651000
26.248385	3.177177	1.677963	1330.152000
26.231087	3.173996	1.676413	1330.651000
26.213001	3.171052	1.674941	1331.151000
26.194063	3.167661	1.673432	1331.651000
26.174515	3.163088	1.672082	1332.151000
26.153955	3.159218	1.670821	1332.651000
26.134437	3.155063	1.669527	1333.151000
26.114649	3.149511	1.668270	1333.651000
26.093976	3.145464	1.667061	1334.151000
26.076440	3.141916	1.665768	1334.651000
26.059460	3.137923	1.664541	1335.151000
26.040320	3.132816	1.663217	1335.651000
26.021782	3.128028	1.661774	1336.151000
26.002705	3.123774	1.660242	1336.652000
25.982262	3.118507	1.658646	1337.151000
25.961961	3.112794	1.657180	1337.652000
25.943293	3.107107	1.655704	1338.151000
25.925813	3.101838	1.654216	1338.652000
25.906308	3.096552	1.652774	1339.151000
25.890680	3.091937	1.651462	1339.651000
25.872601	3.087231	1.650000	1340.151000
25.851163	3.081859	1.648591	1340.651000
25.828321	3.075910	1.647171	1341.152000
25.811044	3.069951	1.645780	1341.651000
25.791704	3.063342	1.644306	1342.151000
25.772443	3.056428	1.642757	1342.651000
25.751595	3.049308	1.641280	1343.151000
25.732672	3.042033	1.639721	1343.651000
25.714087	3.035251	1.638262	1344.151000
25.694226	3.028355	1.636795	1344.651000
25.674698	3.021147	1.635279	1345.151000
25.655848	3.013993	1.633695	1345.651000
25.638267	3.007021	1.632119	1346.151000
25.618192	2.997619	1.630646	1346.652000
25.600385	2.989333	1.629348	1347.151000
25.584304	2.981847	1.627948	1347.652000
25.566681	2.976017	1.626491	1348.151000
25.545517	2.969130	1.625144	1348.651000
25.527835	2.961885	1.623858	1349.151000
25.508367	2.953544	1.622416	1349.652000
25.486428	2.944152	1.621074	1350.151000
25.465427	2.934679	1.619627	1350.651000
25.450602	2.925620	1.618225	1351.151000
25.429632	2.916906	1.616699	1351.651000
25.412073	2.908146	1.615335	1352.151000
25.391163	2.899885	1.613833	1352.651000
25.367790	2.891447	1.612227	1353.152000
25.349354	2.881698	1.610691	1353.651000
25.329075	2.872051	1.609241	1354.152000
25.311918	2.862390	1.607763	1354.651000
25.293051	2.851922	1.606318	1355.151000
25.272169	2.839741	1.605123	1355.652000
25.252061	2.826014	1.603901	1356.151000
25.235493	2.814074	1.602490	1356.652000
25.214645	2.802435	1.601034	1357.151000
25.194981	2.790403	1.599531	1357.652000
25.175410	2.778211	1.598069	1358.151000
25.158673	2.765387	1.596643	1358.651000
25.136713	2.752803	1.595121	1359.151000
25.119777	2.741797	1.593711	1359.652000
25.098396	2.729304	1.592353	1360.151000
25.078848	2.715633	1.590981	1360.651000
25.057267	2.702299	1.589658	1361.151000
25.037968	2.688493	1.588290	1361.651000
25.019237	2.673737	1.586753	1362.151000
24.999206	2.658203	1.585014	1362.651000
24.975285	2.641900	1.583498	1363.152000
24.953908	2.626025	1.581888	1363.651000
24.934024	2.611407	1.580417	1364.151000
24.916885	2.596305	1.579028	1364.651000
24.897982	2.578531	1.577508	1365.152000
24.879110	2.559076	1.576022	1365.651000
24.855878	2.540213	1.574532	1366.151000
24.838442	2.521353	1.573029	1366.652000
24.824706	2.501826	1.571620	1367.151000
24.804916	2.483159	1.570165	1367.651000
24.787471	2.466503	1.568624	1368.151000
24.770667	2.447917	1.567378	1368.652000
24.751101	2.428595	1.566093	1369.151000
24.733142	2.408098	1.564685	1369.652000
24.711539	2.386602	1.563305	1370.151000
24.692557	2.361885	1.561989	1370.651000
24.673803	2.337972	1.560805	1371.151000
24.654134	2.314955	1.559561	1371.651000
24.636047	2.292149	1.558288	1372.152000
24.615999	2.269260	1.557018	1372.651000
24.588905	2.246595	1.555570	1373.152000
24.575680	2.222980	1.554057	1373.651000
24.558829	2.197652	1.552765	1374.151000
24.538770	2.169968	1.551522	1374.651000
24.519598	2.142444	1.550353	1375.151000
24.492816	2.115235	1.549055	1375.651000
24.477106	2.088061	1.547794	1376.151000
24.461859	2.059746	1.546561	1376.652000
24.442208	2.030033	1.545345	1377.151000
24.421331	1.999849	1.544156	1377.651000
24.399891	1.969328	1.542975	1378.151000
24.375159	1.938327	1.541813	1378.651000
24.355051	1.905966	1.540566	1379.151000
24.343024	1.873166	1.539297	1379.651000
24.320813	1.839840	1.538096	1380.151000
24.303763	1.805791	1.536784	1380.651000
24.286793	1.771424	1.535513	1381.151000
24.268514	1.737442	1.534322	1381.651000
24.250071	1.702782	1.533314	1382.152000
24.231291	1.666657	1.532429	1382.651000
24.212357	1.630682	1.531629	1383.151000
24.192078	1.595288	1.530793	1383.651000
24.172785	1.560182	1.529882	1384.152000
24.154749	1.524381	1.528963	1384.651000
24.135580	1.487057	1.528123	1385.151000
24.108572	1.450132	1.527430	1385.651000
24.083787	1.414200	1.526627	1386.151000
24.070583	1.377447	1.525706	1386.652000
24.052155	1.339749	1.524814	1387.151000
24.031885	1.301994	1.524202	1387.651000
24.006468	1.264394	1.523563	1388.151000
23.990075	1.225942	1.522898	1388.652000
23.970117	1.187040	1.522355	1389.151000
23.950522	1.148750	1.522000	1389.651000
23.936917	1.111852	1.521674	1390.151000
23.920866	1.075323	1.521308	1390.652000
23.898490	1.040411	1.520893	1391.151000
23.881904	1.007226	1.520423	1391.651000
23.861783	0.975005	1.520169	1392.152000
23.844440	0.942887	1.520057	1392.651000
23.828403	0.911331	1.519874	1393.151000
23.808481	0.881191	1.519698	1393.651000
23.785867	0.852421	1.519733	1394.151000
23.771454	0.824814	1.519713	1394.651000
23.751233	0.797294	1.519427	1395.151000
23.729027	0.770971	1.519085	1395.651000
23.708686	0.746086	1.518862	1396.151000
23.690637	0.722617	1.518728	1396.651000
23.674443	0.699556	1.518671	1397.151000
23.652968	0.676445	1.518685	1397.651000
23.631838	0.654436	1.518830	1398.151000
23.611526	0.633414	1.519020	1398.652000
23.597249	0.613180	1.519126	1399.151000
23.579807	0.592592	1.519247	1399.651000
23.558423	0.572942	1.519314	1400.151000
23.537033	0.555163	1.519427	1400.651000
23.516351	0.538625	1.519585	1401.151000
23.500322	0.523246	1.519667	1401.651000
23.479765	0.509144	1.519834	1402.152000
23.461528	0.495047	1.520059	1402.651000
23.442166	0.481723	1.520278	1403.151000
23.424039	0.468427	1.520476	1403.651000
23.407565	0.455129	1.520629	1404.151000
23.389294	0.441761	1.520766	1404.651000
23.368826	0.429873	1.520908	1405.152000
23.349529	0.419310	1.521033	1405.651000
23.329454	0.408845	1.521223	1406.151000
23.309742	0.397564	1.521563	1406.651000
23.291909	0.386417	1.522000	1407.151000
23.280157	0.376402	1.522257	1407.651000
23.258301	0.366650	1.522335	1408.151000
23.241281	0.357720	1.522470	1408.651000
23.219031	0.349259	1.522577	1409.151000
23.197046	0.341580	1.522409	1409.651000
23.180117	0.334050	1.522254	1410.151000
23.162534	0.326122	1.522262	1410.651000
23.141446	0.317818	1.522208	1411.151000
23.123309	0.309624	1.522188	1411.651000
23.101889	0.301695	1.522206	1412.151000
23.083939	0.294343	1.522201	1412.651000
23.064037	0.287838	1.522213	1413.152000
23.044468	0.281451	1.522283	1413.651000
23.025034	0.276006	1.522372	1414.151000
23.005170	0.270541	1.522280	1414.651000
22.987722	0.266167	1.522246	1415.152000
22.966415	0.260875	1.522385	1415.651000
22.948298	0.254604	1.522497	1416.151000
22.933486	0.247762	1.522602	1416.651000
22.917046	0.242387	1.522718	1417.151000
22.893753	0.238099	1.522739	1417.651000
22.876645	0.234027	1.522805	1418.151000
22.858102	0.230338	1.522754	1418.651000
22.844724	0.227697	1.522674	1419.151000
22.826331	0.224329	1.522631	1419.651000
22.806593	0.220844	1.522549	1420.151000
22.785692	0.217960	1.522513	1420.651000
22.772446	0.215867	1.522653	1421.151000
22.751772	0.213559	1.522668	1421.651000
22.731101	0.211807	1.522647	1422.151000
22.715034	0.210519	1.522650	1422.651000
22.696194	0.209581	1.522620	1423.152000
22.678496	0.208319	1.522482	1423.651000
22.664967	0.207024	1.522446	1424.152000
22.640734	0.205320	1.522403	1424.651000
22.622087	0.204633	1.522500	1425.152000
22.605343	0.205889	1.522430	1425.651000
22.590026	0.208263	1.522113	1426.151000
22.568910	0.211732	1.521904	1426.651000
22.546530	0.215025	1.521881	1427.151000
22.526968	0.219792	1.522052	1427.652000
22.510952	0.225754	1.522251	1428.151000
22.496617	0.233058	1.522441	1428.652000
22.478939	0.240458	1.522532	1429.151000
22.455371	0.247614	1.522677	1429.651000
22.440116	0.256674	1.522749	1430.151000
22.423146	0.267512	1.522663	1430.651000
22.401082	0.279502	1.522501	1431.151000
22.374930	0.292400	1.522325	1431.651000
22.355520	0.305880	1.522169	1432.151000
22.342562	0.320567	1.521929	1432.651000
22.324542	0.337128	1.521777	1433.151000
22.302530	0.353908	1.521732	1433.651000
22.291605	0.371806	1.521589	1434.152000
22.269283	0.389722	1.521394	1434.651000
22.245918	0.407993	1.521164	1435.151000
22.227318	0.427958	1.520891	1435.651000
22.217782	0.449229	1.520692	1436.151000
22.202137	0.471593	1.520471	1436.651000
22.180136	0.493662	1.520071	1437.151000
22.155618	0.515221	1.519606	1437.651000
22.134935	0.536244	1.519137	1438.151000
22.118765	0.558728	1.518609	1438.651000
22.101291	0.581609	1.518114	1439.151000
22.085648	0.604088	1.517423	1439.651000
22.068559	0.627094	1.516656	1440.151000
22.049334	0.651187	1.515788	1440.652000
22.038561	0.675383	1.514867	1441.151000
22.017942	0.699967	1.514035	1441.651000
21.994453	0.724617	1.513089	1442.151000
21.977720	0.748291	1.512265	1442.652000
21.957974	0.771707	1.511439	1443.152000
21.936463	0.795117	1.510331	1443.651000
21.919500	0.819032	1.509100	1444.152000
21.898878	0.843771	1.507843	1444.651000
21.876469	0.868466	1.506371	1445.151000
21.859891	0.893525	1.504838	1445.651000
21.840083	0.918138	1.503283	1446.151000
21.823872	0.942660	1.501646	1446.651000
21.808726	0.967057	1.499934	1447.151000
21.790753	0.991723	1.498357	1447.651000
21.769620	1.014477	1.496822	1448.151000
21.755756	1.036151	1.495378	1448.651000
21.737625	1.056576	1.493677	1449.151000
21.719089	1.077292	1.491922	1449.651000
21.700671	1.098308	1.490175	1450.151000
21.684900	1.119044	1.488424	1450.652000
21.658374	1.139278	1.486697	1451.151000
21.635844	1.159036	1.484900	1451.651000
21.621056	1.178819	1.482849	1452.151000
21.603391	1.199078	1.480745	1452.651000
21.582418	1.219208	1.478801	1453.152000
21.562332	1.238405	1.476862	1453.651000
21.542090	1.256457	1.474845	1454.152000
21.525698	1.274158	1.472807	1454.651000
21.509954	1.290837	1.470883	1455.151000
21.492263	1.307168	1.468971	1455.651000
21.469799	1.323717	1.467022	1456.151000
21.454053	1.338850	1.465105	1456.651000
21.440024	1.354250	1.463081	1457.151000
21.423071	1.369207	1.460906	1457.651000
21.403586	1.383237	1.458868	1458.151000
21.383282	1.396576	1.456954	1458.651000
21.360933	1.409637	1.454853	1459.151000
21.337961	1.421861	1.452800	1459.652000
21.325396	1.434282	1.450748	1460.151000
21.307151	1.447045	1.448699	1460.652000
21.288242	1.459171	1.446573	1461.151000
21.267630	1.471677	1.444402	1461.651000
21.249359	1.484102	1.442170	1462.151000
21.223876	1.496718	1.439901	1462.651000
21.207965	1.509125	1.437942	1463.151000
21.186047	1.520724	1.435963	1463.652000
21.168054	1.532075	1.433946	1464.152000
21.148951	1.543455	1.432065	1464.651000
21.131054	1.554190	1.430099	1465.151000
21.113655	1.564884	1.427908	1465.651000
21.087747	1.575812	1.425581	1466.152000
21.073074	1.585751	1.423080	1466.651000
21.054691	1.594988	1.420793	1467.152000
21.034124	1.603301	1.418910	1467.651000
21.013162	1.612358	1.416842	1468.151000
20.991898	1.621438	1.414597	1468.651000
20.972214	1.630467	1.412507	1469.151000
20.961316	1.640364	1.410492	1469.652000
20.944297	1.649955	1.408567	1470.151000
20.919385	1.658290	1.406618	1470.651000
20.904287	1.666697	1.404478	1471.151000
20.882192	1.675442	1.402347	1471.651000
20.865987	1.684589	1.400328	1472.151000
20.848461	1.693776	1.398215	1472.651000
20.828886	1.703157	1.396038	1473.151000
20.810290	1.712078	1.393913	1473.651000
20.790796	1.721573	1.391884	1474.151000
20.771122	1.729902	1.389773	1474.651000
20.750767	1.737851	1.387795	1475.151000
20.729610	1.746896	1.385910	1475.651000
20.709569	1.755942	1.383937	1476.152000
20.690317	1.765373	1.381795	1476.651000
20.672018	1.774828	1.379695	1477.152000
20.656114	1.783591	1.377535	1477.651000
20.635688	1.793196	1.375454	1478.151000
20.614804	1.802536	1.373363	1478.651000
20.600228	1.811571	1.371300	1479.151000
20.582281	1.819754	1.369305	1479.652000
20.563261	1.828152	1.367451	1480.151000
20.544443	1.837305	1.365548	1480.651000
20.526040	1.845829	1.363781	1481.151000
20.505138	1.854665	1.361965	1481.651000
20.484756	1.863563	1.360211	1482.151000
20.465307	1.871601	1.358367	1482.651000
20.442447	1.878671	1.356478	1483.151000
20.424080	1.885885	1.354713	1483.651000
20.407778	1.893998	1.352945	1484.151000
20.389460	1.901798	1.351108	1484.651000
20.368142	1.909722	1.349355	1485.151000
20.352368	1.917888	1.347456	1485.651000
20.331088	1.925877	1.345492	1486.151000
20.314506	1.934464	1.343638	1486.651000
20.290554	1.942658	1.341694	1487.152000
20.274739	1.949957	1.339957	1487.651000
20.258189	1.957176	1.338285	1488.152000
20.237789	1.964289	1.336522	1488.651000
20.214807	1.971740	1.334739	1489.151000
20.196567	1.978565	1.332969	1489.652000
20.178991	1.984787	1.331138	1490.151000
20.160438	1.990417	1.329653	1490.652000
20.140091	1.996868	1.328121	1491.151000
20.117996	2.002825	1.326370	1491.652000
20.098635	2.008401	1.324596	1492.151000
20.079686	2.014488	1.323058	1492.651000
20.061109	2.021384	1.321454	1493.151000
20.040503	2.028042	1.319786	1493.651000
20.022088	2.033906	1.318099	1494.151000
20.000266	2.038200	1.316264	1494.651000
19.978200	2.042442	1.314323	1495.152000
19.956477	2.046581	1.312623	1495.651000
19.942955	2.050278	1.310913	1496.152000
19.924875	2.054123	1.309074	1496.651000
19.900726	2.058724	1.307258	1497.151000
19.882089	2.062945	1.305562	1497.651000
19.868990	2.066411	1.303922	1498.151000
19.849645	2.070250	1.302189	1498.651000
19.824902	2.073944	1.300582	1499.151000
19.803444	2.076927	1.298952	1499.652000
19.787148	2.080306	1.297283	1500.151000
19.769467	2.083807	1.295649	1500.651000
19.750707	2.087020	1.293986	1501.151000
19.732392	2.089085	1.292300	1501.652000
19.714662	2.089776	1.290695	1502.151000
19.691343	2.090150	1.289263	1502.652000
19.670031	2.091982	1.287608	1503.151000
19.652031	2.093915	1.286065	1503.651000
19.630675	2.095507	1.284539	1504.151000
19.610507	2.097232	1.283155	1504.651000
19.591069	2.099106	1.281686	1505.151000
19.575366	2.100078	1.280110	1505.651000
19.554351	2.100462	1.278508	1506.152000
19.529611	2.100831	1.277046	1506.651000
19.511365	2.101587	1.275444	1507.151000
19.492369	2.102550	1.273788	1507.651000
19.477593	2.103885	1.272067	1508.151000
19.459291	2.104848	1.270532	1508.651000
19.440758	2.104993	1.269092	1509.151000
19.415987	2.103353	1.267748	1509.651000
19.399908	2.101882	1.266392	1510.151000
19.381824	2.101196	1.265029	1510.651000
19.359229	2.100621	1.263575	1511.151000
19.331165	2.099867	1.262192	1511.652000
19.311024	2.098219	1.260781	1512.151000
19.292793	2.095718	1.259360	1512.652000
19.276211	2.093089	1.257859	1513.151000
19.257363	2.089916	1.256379	1513.651000
19.235871	2.087770	1.254748	1514.151000
19.212965	2.085912	1.253059	1514.651000
19.193640	2.083871	1.251512	1515.152000
19.173012	2.082282	1.250136	1515.651000
19.154209	2.080925	1.248695	1516.152000
19.134868	2.079237	1.247438	1516.651000
19.113080	2.076374	1.246183	1517.151000
19.093482	2.073222	1.244892	1517.651000
19.072319	2.070062	1.243408	1518.151000
19.053089	2.067010	1.241865	1518.651000
19.032149	2.063316	1.240473	1519.151000
19.011782	2.059765	1.239175	1519.651000
18.993217	2.056740	1.237869	1520.151000
18.971169	2.054277	1.236578	1520.652000
18.951477	2.051638	1.235161	1521.151000
18.930197	2.048148	1.233728	1521.652000
18.909629	2.044427	1.232493	1522.151000
18.893329	2.040752	1.231409	1522.651000
18.874501	2.037527	1.230190	1523.151000
18.854751	2.035020	1.228925	1523.651000
18.832770	2.032542	1.227600	1524.151000
18.811803	2.030361	1.226298	1524.651000
18.794194	2.027775	1.225123	1525.151000
18.773699	2.024933	1.223851	1525.651000
18.753234	2.022269	1.222551	1526.151000
18.734610	2.019270	1.221303	1526.651000
18.714786	2.016360	1.220059	1527.151000
18.698209	2.013919	1.218833	1527.651000
18.679044	2.012067	1.217678	1528.151000
18.660876	2.010489	1.216474	1528.651000
18.639085	2.008775	1.215295	1529.151000
18.619343	2.006596	1.214043	1529.651000
18.598563	2.003807	1.212880	1530.151000
18.579536	2.001245	1.211870	1530.652000
18.558423	1.999611	1.210697	1531.151000
18.540730	1.998236	1.209528	1531.652000
18.521942	1.996713	1.208524	1532.151000
18.503832	1.995207	1.207427	1532.651000
18.486299	1.994473	1.206278	1533.151000
18.463241	1.992782	1.205249	1533.651000
18.442628	1.991637	1.204135	1534.151000
18.424986	1.990463	1.202941	1534.651000
18.403297	1.989394	1.201689	1535.151000
18.384952	1.988489	1.200430	1535.651000
18.364531	1.988358	1.199420	1536.151000
18.343795	1.988595	1.198302	1536.651000
18.324359	1.988665	1.197074	1537.151000
18.304086	1.990158	1.195924	1537.651000
18.287224	1.990567	1.194694	1538.151000
18.269609	1.990142	1.193565	1538.651000
18.250740	1.990024	1.192479	1539.151000
18.227022	1.990316	1.191494	1539.651000
18.208920	1.991418	1.190340	1540.151000
18.188936	1.992599	1.189176	1540.652000
18.166661	1.993493	1.188105	1541.151000
18.147783	1.994132	1.187023	1541.651000
18.127561	1.994340	1.185997	1542.151000
18.106655	1.994573	1.184926	1542.651000
18.088593	1.995092	1.183610	1543.151000
18.074052	1.995438	1.182248	1543.651000
18.057275	1.995091	1.180967	1544.151000
18.032413	1.995589	1.179695	1544.651000
18.011539	1.996670	1.178459	1545.151000
17.997198	1.997850	1.177185	1545.651000
17.979809	1.998780	1.176017	1546.151000
17.959870	1.999619	1.174725	1546.651000
17.935132	2.000751	1.173476	1547.152000
17.914744	2.001394	1.172267	1547.651000
17.898937	2.001766	1.170893	1548.152000
17.883457	2.001735	1.169653	1548.651000
17.864423	2.002038	1.168321	1549.151000
17.839415	2.002238	1.167086	1549.651000
17.818375	2.002510	1.165949	1550.151000
17.801150	2.003270	1.164800	1550.651000
17.779012	2.004678	1.163565	1551.151000
17.759987	2.004795	1.162591	1551.652000
17.741783	2.004039	1.161389	1552.151000
17.723231	2.003515	1.160086	1552.651000
17.705957	2.003433	1.158838	1553.151000
17.685982	2.004106	1.157706	1553.651000
17.658561	2.004965	1.156421	1554.151000
17.636987	2.005571	1.154897	1554.651000
17.619022	2.005419	1.153374	1555.151000
17.602835	2.004167	1.152075	1555.651000
17.581914	2.004657	1.150738	1556.151000
17.564264	2.006511	1.149395	1556.651000
17.539109	2.007088	1.148004	1557.152000
17.521467	2.006895	1.146652	1557.651000
17.504938	2.006575	1.145297	1558.151000
17.487758	2.006143	1.143879	1558.651000
17.466512	2.005196	1.142514	1559.151000
17.442522	2.003140	1.141071	1559.651000
17.423880	2.000511	1.139620	1560.151000
17.403610	1.997579	1.138091	1560.651000
17.389647	1.995878	1.136636	1561.152000
17.368756	1.993419	1.135298	1561.651000
17.349066	1.991259	1.133922	1562.151000
17.328469	1.988919	1.132516	1562.651000
17.311000	1.987543	1.131091	1563.151000
17.293863	1.985898	1.129762	1563.651000
17.274929	1.983594	1.128315	1564.151000
17.253848	1.980834	1.127047	1564.651000
17.237457	1.978102	1.125804	1565.151000
17.222156	1.975201	1.124404	1565.651000
17.203060	1.972306	1.123034	1566.152000
17.178902	1.968038	1.121641	1566.651000
17.155507	1.963337	1.120227	1567.152000
17.141274	1.958591	1.118871	1567.651000
17.125261	1.953894	1.117487	1568.151000
17.099305	1.948708	1.115933	1568.651000
17.075759	1.943534	1.114416	1569.151000
17.062760	1.938971	1.112777	1569.651000
17.042929	1.934661	1.111104	1570.151000
17.019443	1.930499	1.109566	1570.651000
17.000134	1.925821	1.108113	1571.151000
16.979259	1.919122	1.106903	1571.651000
16.965648	1.911763	1.105530	1572.151000
16.946152	1.905621	1.104256	1572.651000
16.920479	1.899050	1.103067	1573.151000
16.906290	1.891751	1.101656	1573.651000
16.891742	1.884941	1.100234	1574.151000
16.870854	1.877412	1.098785	1574.652000
16.850385	1.870061	1.097320	1575.151000
16.827151	1.862077	1.095829	1575.651000
16.808936	1.853794	1.094376	1576.151000
16.787634	1.845260	1.092999	1576.651000
16.763354	1.836130	1.091670	1577.152000
16.747006	1.827407	1.090426	1577.651000
16.734797	1.817587	1.089120	1578.151000
16.712773	1.806909	1.087776	1578.651000
16.695312	1.797041	1.086289	1579.151000
16.683173	1.786938	1.084813	1579.651000
16.664560	1.776970	1.083332	1580.151000
16.636316	1.766254	1.081979	1580.651000
16.622888	1.754716	1.080421	1581.151000
16.607322	1.743427	1.079027	1581.651000
16.580946	1.732427	1.077726	1582.151000
16.562571	1.720456	1.076403	1582.652000
16.542866	1.707043	1.075073	1583.151000
16.528790	1.693618	1.073578	1583.651000
16.501588	1.680190	1.072000	1584.151000
16.485562	1.665752	1.070357	1584.652000
16.466937	1.650322	1.068842	1585.151000
16.442728	1.634756	1.067328	1585.651000
16.422864	1.619572	1.066029	1586.151000
16.402588	1.603408	1.064754	1586.651000
16.379415	1.585743	1.063320	1587.151000
16.362679	1.567543	1.061906	1587.651000
16.334718	1.549230	1.060507	1588.151000
16.316497	1.530376	1.059267	1588.651000
16.299411	1.510201	1.058001	1589.151000
16.281918	1.489609	1.056761	1589.651000
16.265720	1.469518	1.055325	1590.151000
16.240533	1.448445	1.053893	1590.651000
16.224548	1.427464	1.052442	1591.151000
16.205790	1.405888	1.051241	1591.651000
16.186923	1.382676	1.050097	1592.151000
16.164294	1.358523	1.048847	1592.652000
16.147888	1.335163	1.047449	1593.151000
16.126787	1.311640	1.046200	1593.651000
16.106490	1.287182	1.045051	1594.151000
16.085806	1.263191	1.043870	1594.651000
16.069092	1.238982	1.042607	1595.151000
16.051367	1.212846	1.041479	1595.651000
16.032367	1.185761	1.040368	1596.151000
16.004385	1.157824	1.039261	1596.651000
15.987534	1.129099	1.037973	1597.151000
15.969882	1.100251	1.036640	1597.651000
15.944462	1.071674	1.035437	1598.151000
15.933774	1.042037	1.034416	1598.651000
15.907096	1.010608	1.033345	1599.152000
15.893310	0.978082	1.032330	1599.651000
15.875381	0.945280	1.031321	1600.151000
15.849667	0.913106	1.030316	1600.651000
15.835233	0.880514	1.029382	1601.151000
15.805967	0.846850	1.028372	1601.651000
15.786725	0.812651	1.027465	1602.151000
15.771147	0.777594	1.026744	1602.652000
15.752669	0.742880	1.026137	1603.151000
15.731512	0.707928	1.025597	1603.651000
15.710095	0.672408	1.025022	1604.151000
15.690622	0.637873	1.024462	1604.651000
15.670813	0.604248	1.023902	1605.151000
15.651044	0.571443	1.023486	1605.651000
15.631507	0.539899	1.023182	1606.151000
15.613116	0.509611	1.022741	1606.651000
15.590769	0.481344	1.022357	1607.151000
15.573410	0.454705	1.021998	1607.651000
15.549572	0.429616	1.021654	1608.151000
15.534791	0.405777	1.021396	1608.651000
15.515460	0.383243	1.021315	1609.152000
15.491178	0.362554	1.021418	1609.651000
15.472977	0.343110	1.021504	1610.151000
15.455420	0.323772	1.021550	1610.651000
15.438446	0.306232	1.021520	1611.151000
15.415809	0.290464	1.021752	1611.651000
15.392816	0.275896	1.022003	1612.151000
15.369547	0.262988	1.022226	1612.652000
15.349078	0.250950	1.022407	1613.151000
15.335056	0.239763	1.022347	1613.651000
15.318451	0.229610	1.022170	1614.151000
15.298950	0.220181	1.022194	1614.651000
15.280045	0.211255	1.022177	1615.151000
15.260973	0.202674	1.022086	1615.652000
15.235856	0.194901	1.022155	1616.151000
15.221107	0.188209	1.022361	1616.651000
15.201643	0.182916	1.022549	1617.151000
15.181398	0.179600	1.022634	1617.651000
15.158486	0.177466	1.022512	1618.152000
15.142868	0.175720	1.022496	1618.651000
15.120117	0.175031	1.022438	1619.151000
15.097748	0.176712	1.022292	1619.651000
15.081049	0.180218	1.022213	1620.151000
15.064087	0.186073	1.022170	1620.651000
15.040863	0.194037	1.022180	1621.151000
15.015886	0.203840	1.022141	1621.651000
15.001438	0.215705	1.022096	1622.151000
14.984155	0.228875	1.022010	1622.651000
14.965698	0.243910	1.021826	1623.151000
14.943852	0.260544	1.021633	1623.652000
14.924221	0.278150	1.021505	1624.151000
14.905336	0.297172	1.021422	1624.652000
14.882934	0.318025	1.021262	1625.151000
14.865240	0.340147	1.021056	1625.651000
14.840701	0.362504	1.020649	1626.151000
14.825436	0.384983	1.020085	1626.651000
14.807300	0.408120	1.019439	1627.151000
14.789001	0.430564	1.018965	1627.651000
14.763957	0.453145	1.018186	1628.152000
14.747779	0.475021	1.017221	1628.651000
14.732651	0.497241	1.016241	1629.151000
14.713718	0.519089	1.015096	1629.651000
14.693469	0.540615	1.013886	1630.151000
14.674156	0.562159	1.012667	1630.651000
14.655007	0.583373	1.011297	1631.152000
14.629138	0.604144	1.009749	1631.651000
14.615164	0.624159	1.008122	1632.151000
14.597431	0.643761	1.006736	1632.651000
14.573698	0.663750	1.005100	1633.151000
14.554614	0.683356	1.003306	1633.651000
14.533246	0.702680	1.001497	1634.151000
14.513323	0.722022	0.999742	1634.652000
14.492688	0.741684	0.997773	1635.151000
14.476456	0.761335	0.995748	1635.651000
14.457438	0.780336	0.993685	1636.151000
14.445610	0.798799	0.991749	1636.651000
14.426573	0.816564	0.990024	1637.151000
14.408114	0.834083	0.988205	1637.651000
14.390305	0.851121	0.986287	1638.151000
14.369824	0.867556	0.984232	1638.651000
14.351050	0.883552	0.982095	1639.151000
14.331351	0.898557	0.980193	1639.651000
14.310294	0.913149	0.978327	1640.151000
14.291034	0.927961	0.976159	1640.651000
14.268687	0.942960	0.974107	1641.151000
14.249531	0.956652	0.972092	1641.651000
14.227008	0.970005	0.970157	1642.151000
14.208108	0.983417	0.968205	1642.651000
14.191616	0.997007	0.966149	1643.151000
14.169153	1.009341	0.964160	1643.651000
14.149216	1.021514	0.962384	1644.151000
14.131982	1.034709	0.960632	1644.651000
14.111301	1.048325	0.958679	1645.151000
14.092517	1.061964	0.956298	1645.651000
14.071328	1.075006	0.953968	1646.151000
14.052512	1.087743	0.951838	1646.651000
14.034793	1.099266	0.949588	1647.151000
14.017196	1.110601	0.947493	1647.651000
13.995645	1.122686	0.945386	1648.151000
13.976553	1.134226	0.943406	1648.651000
13.958502	1.144665	0.941519	1649.151000
13.941452	1.154493	0.939464	1649.651000
13.922083	1.164333	0.937462	1650.151000
13.901136	1.173912	0.935565	1650.651000
13.881260	1.184241	0.933699	1651.151000
13.864065	1.195260	0.931879	1651.651000
13.842761	1.205650	0.930240	1652.152000
13.822842	1.215917	0.928656	1652.651000
13.802449	1.227195	0.926910	1653.151000
13.787202	1.239262	0.924898	1653.652000
13.768855	1.251139	0.923177	1654.151000
13.748376	1.262015	0.921543	1654.651000
13.730824	1.272209	0.919830	1655.151000
13.710173	1.282624	0.918017	1655.652000
13.692047	1.292689	0.916125	1656.151000
13.671186	1.302283	0.914269	1656.651000
13.650632	1.311743	0.912423	1657.151000
13.632385	1.321425	0.910627	1657.651000
13.613442	1.331089	0.908916	1658.151000
13.594469	1.340655	0.907207	1658.651000
13.575482	1.349743	0.905493	1659.151000
13.557373	1.358164	0.903786	1659.651000
13.537631	1.366243	0.902141	1660.151000
13.518927	1.373209	0.900654	1660.651000
13.500208	1.379883	0.899196	1661.151000
13.480378	1.386744	0.897492	1661.651000
13.459664	1.393301	0.895885	1662.152000
13.440674	1.400595	0.894469	1662.651000
13.421929	1.407469	0.893019	1663.151000
13.402638	1.413971	0.891426	1663.652000
13.383444	1.419863	0.889973	1664.151000
13.365945	1.424780	0.888619	1664.651000
13.346104	1.430263	0.887016	1665.151000
13.327151	1.436069	0.885337	1665.651000
13.308456	1.440851	0.883699	1666.151000
13.289643	1.444789	0.882100	1666.651000
13.269101	1.448841	0.880597	1667.151000
13.250394	1.453088	0.879207	1667.651000
13.231055	1.456608	0.877691	1668.151000
13.211227	1.459136	0.876455	1668.651000
13.194019	1.461594	0.875116	1669.151000
13.173566	1.464140	0.873777	1669.651000
13.156757	1.465664	0.872359	1670.151000
13.140399	1.467096	0.870833	1670.651000
13.123190	1.468912	0.869066	1671.151000
13.104722	1.470261	0.867557	1671.651000
13.080527	1.471907	0.866325	1672.152000
13.060178	1.473565	0.865144	1672.651000
13.042948	1.475667	0.863824	1673.151000
13.027046	1.476350	0.862528	1673.651000
13.006711	1.475366	0.861134	1674.151000
12.985385	1.472035	0.859842	1674.651000
12.964487	1.469195	0.858504	1675.151000
12.946625	1.467546	0.857367	1675.652000
12.925936	1.467748	0.856086	1676.151000
12.911182	1.469162	0.854731	1676.651000
12.890160	1.470637	0.853324	1677.151000
12.872927	1.470576	0.851887	1677.651000
12.852184	1.469222	0.850453	1678.151000
12.836921	1.468332	0.849048	1678.651000
12.819250	1.468003	0.847707	1679.152000
12.798273	1.467280	0.846504	1679.651000
12.778527	1.465247	0.845257	1680.151000
12.760227	1.462543	0.844060	1680.651000
12.740574	1.459735	0.842968	1681.151000
12.724523	1.456737	0.841763	1681.651000
12.706504	1.452961	0.840389	1682.151000
12.685613	1.449078	0.838849	1682.651000
12.667155	1.445169	0.837278	1683.151000
12.648860	1.440376	0.835686	1683.651000
12.630272	1.437492	0.834074	1684.151000
12.611453	1.434572	0.832653	1684.652000
12.592018	1.430337	0.831469	1685.151000
12.574642	1.421711	0.830226	1685.651000
12.556847	1.413522	0.829130	1686.151000
12.539917	1.405613	0.827848	1686.651000
12.524059	1.398134	0.826565	1687.151000
12.507188	1.391220	0.825324	1687.651000
12.488236	1.384227	0.823987	1688.151000
12.464899	1.376408	0.822649	1688.651000
12.445035	1.368392	0.821479	1689.151000
12.427185	1.359399	0.820256	1689.651000
12.410155	1.349644	0.818857	1690.151000
12.392260	1.339911	0.817474	1690.651000
12.373046	1.329317	0.816115	1691.151000
12.354395	1.317846	0.814710	1691.651000
12.335915	1.305899	0.813442	1692.151000
12.319206	1.293589	0.812403	1692.651000
12.298243	1.281062	0.811433	1693.151000
12.279026	1.267477	0.810264	1693.651000
12.260818	1.253265	0.808946	1694.151000
12.246750	1.239062	0.807605	1694.651000
12.223726	1.224199	0.806373	1695.151000
12.208903	1.208571	0.805138	1695.651000
12.190587	1.191867	0.803785	1696.151000
12.176273	1.175204	0.802468	1696.651000
12.151388	1.157886	0.801431	1697.151000
12.132807	1.140479	0.800214	1697.652000
12.111348	1.122022	0.798996	1698.151000
12.095089	1.103261	0.797686	1698.652000
12.077589	1.085630	0.796571	1699.151000
12.061498	1.068675	0.795483	1699.651000
12.042617	1.048525	0.794295	1700.151000
12.026409	1.026312	0.793163	1700.651000
12.005682	1.003768	0.791997	1701.151000
11.989430	0.980647	0.790916	1701.651000
11.967337	0.957385	0.789855	1702.151000
11.951910	0.934288	0.788731	1702.651000
11.933856	0.910401	0.787638	1703.151000
11.917240	0.885275	0.786437	1703.651000
11.899471	0.858719	0.785428	1704.151000
11.878149	0.831926	0.784333	1704.651000
11.864746	0.804959	0.783329	1705.151000
11.837275	0.777009	0.782398	1705.651000
11.817274	0.748151	0.781682	1706.151000
11.797465	0.718300	0.780861	1706.651000
11.780926	0.687829	0.780046	1707.151000
11.764319	0.657008	0.779311	1707.651000
11.750885	0.625356	0.778360	1708.151000
11.732355	0.593703	0.777518	1708.651000
11.706895	0.563094	0.776851	1709.151000
11.687760	0.531496	0.776140	1709.651000
11.669772	0.499946	0.775440	1710.151000
11.650041	0.469314	0.774868	1710.651000
11.634408	0.439228	0.774396	1711.152000
11.617242	0.409727	0.773916	1711.651000
11.601309	0.382576	0.773498	1712.151000
11.578256	0.356340	0.773098	1712.651000
11.568620	0.331755	0.772563	1713.151000
11.545060	0.309316	0.772110	1713.651000
11.524133	0.288995	0.771879	1714.151000
11.506761	0.270630	0.771763	1714.651000
11.489950	0.253532	0.771725	1715.151000
11.467811	0.237549	0.771897	1715.651000
11.453482	0.222956	0.771968	1716.151000
11.436135	0.210462	0.771997	1716.651000
11.412587	0.199829	0.772065	1717.151000
11.400045	0.191602	0.771999	1717.651000
11.377901	0.184256	0.771961	1718.151000
11.359492	0.179160	0.772026	1718.651000
11.341008	0.176156	0.772155	1719.151000
11.322165	0.175500	0.772118	1719.651000
11.304940	0.178250	0.771814	1720.151000
11.286601	0.183729	0.771560	1720.651000
11.268721	0.191729	0.771570	1721.152000
11.250556	0.202092	0.771525	1721.651000
11.228581	0.214121	0.771479	1722.152000
11.211441	0.228681	0.771439	1722.651000
11.188981	0.245036	0.771409	1723.151000
11.169290	0.262174	0.771159	1723.651000
11.151135	0.281236	0.770954	1724.151000
11.135733	0.301301	0.770693	1724.651000
11.119532	0.321806	0.770088	1725.151000
11.104880	0.341839	0.769356	1725.651000
11.084568	0.359660	0.768489	1726.151000
11.054432	0.376779	0.767297	1726.651000
11.040648	0.394764	0.766182	1727.151000
11.021664	0.413830	0.765081	1727.651000
11.005421	0.433230	0.763883	1728.151000
10.988432	0.451957	0.762646	1728.651000
10.969866	0.470191	0.761212	1729.151000
10.946637	0.488511	0.759536	1729.651000
10.922996	0.506277	0.757687	1730.151000
10.905565	0.523816	0.755864	1730.652000
10.886634	0.540234	0.754198	1731.151000
10.861267	0.557416	0.752397	1731.651000
10.844683	0.575021	0.750491	1732.152000
10.830805	0.591326	0.748731	1732.651000
10.816465	0.606695	0.746950	1733.151000
10.797355	0.621959	0.744985	1733.651000
10.775114	0.637879	0.742956	1734.151000
10.755009	0.653584	0.741032	1734.651000
10.731761	0.669000	0.739153	1735.151000
10.712505	0.684509	0.737246	1735.651000
10.696579	0.699016	0.735329	1736.151000
10.680172	0.713566	0.733500	1736.651000
10.661166	0.727726	0.731606	1737.151000
10.638550	0.740424	0.729669	1737.651000
10.622408	0.752711	0.727844	1738.151000
10.607200	0.765502	0.725979	1738.651000
10.584067	0.777610	0.724035	1739.151000
10.565591	0.789046	0.722198	1739.651000
10.547407	0.800710	0.720389	1740.151000
10.529369	0.812050	0.718615	1740.651000
10.509983	0.822849	0.716812	1741.151000
10.495007	0.833948	0.714966	1741.651000
10.481408	0.845107	0.713047	1742.151000
10.460022	0.855444	0.710958	1742.651000
10.434341	0.865285	0.709293	1743.151000
10.416714	0.875531	0.707708	1743.651000
10.402686	0.885690	0.705980	1744.151000
10.379816	0.895865	0.704173	1744.651000
10.362642	0.905884	0.702534	1745.151000
10.346361	0.916961	0.700799	1745.651000
10.325522	0.927872	0.699093	1746.151000
10.303895	0.937627	0.697634	1746.651000
10.284482	0.946423	0.696175	1747.151000
10.265833	0.955885	0.694636	1747.651000
10.248209	0.964931	0.692969	1748.151000
10.228931	0.973864	0.691061	1748.651000
10.204745	0.982954	0.689373	1749.151000
10.186591	0.991066	0.687884	1749.651000
10.165793	0.997621	0.686345	1750.151000
10.148160	1.003371	0.684738	1750.651000
10.128550	1.008599	0.683056	1751.151000
10.113538	1.013429	0.681524	1751.651000
10.093476	1.017487	0.679966	1752.151000
10.072614	1.020951	0.678201	1752.651000
10.055460	1.023558	0.676449	1753.151000
10.034027	1.025670	0.674847	1753.651000
10.013287	1.027072	0.673400	1754.151000
9.991266	1.027897	0.672020	1754.651000
9.974919	1.027913	0.670607	1755.151000
9.951474	1.027242	0.669235	1755.651000
9.938559	1.025847	0.668009	1756.151000
9.921769	1.023520	0.666739	1756.652000
9.904308	1.020409	0.665408	1757.151000
9.881574	1.016572	0.663918	1757.652000
9.857221	1.011968	0.662493	1758.151000
9.838977	1.006664	0.660935	1758.651000
9.817505	1.000591	0.659372	1759.151000
9.796768	0.993460	0.657982	1759.651000
9.781159	0.985385	0.656636	1760.151000
9.759573	0.976343	0.655329	1760.651000
9.739807	0.966598	0.654123	1761.151000
9.720631	0.955877	0.652762	1761.651000
9.700414	0.943794	0.651391	1762.151000
9.676087	0.930270	0.649968	1762.651000
9.660201	0.915945	0.648573	1763.151000
9.636193	0.900505	0.647321	1763.651000
9.621192	0.883966	0.645927	1764.151000
9.601615	0.866480	0.644498	1764.651000
9.575343	0.848000	0.643228	1765.151000
9.555607	0.828624	0.642052	1765.651000
9.535699	0.808058	0.640847	1766.151000
9.515844	0.785871	0.639643	1766.651000
9.500403	0.762352	0.638583	1767.151000
9.481236	0.737336	0.637386	1767.651000
9.462409	0.711362	0.636295	1768.151000
9.443029	0.684863	0.635216	1768.651000
9.418766	0.658004	0.634097	1769.151000
9.400405	0.630499	0.633013	1769.651000
9.379011	0.601830	0.631865	1770.151000
9.358914	0.572167	0.630750	1770.651000
9.338986	0.541331	0.629772	1771.151000
9.319797	0.509887	0.628936	1771.651000
9.300290	0.477973	0.627912	1772.151000
9.282047	0.446369	0.627072	1772.651000
9.262332	0.415024	0.626091	1773.151000
9.240744	0.384360	0.625190	1773.651000
9.222799	0.354892	0.624294	1774.151000
9.203995	0.327332	0.623628	1774.651000
9.184607	0.301687	0.623064	1775.151000
9.164105	0.278515	0.622820	1775.651000
9.145636	0.257959	0.622644	1776.151000
9.128143	0.239943	0.622630	1776.651000
9.109197	0.224670	0.622551	1777.151000
9.089204	0.212407	0.622442	1777.651000
9.069396	0.203028	0.622342	1778.151000
9.050480	0.196977	0.622024	1778.651000
9.033267	0.193839	0.621785	1779.151000
9.014103	0.194250	0.621699	1779.651000
8.994358	0.198194	0.621529	1780.151000
8.973367	0.205392	0.621186	1780.651000
8.953586	0.215359	0.620841	1781.151000
8.934140	0.227946	0.620528	1781.651000
8.917455	0.242310	0.620228	1782.152000
8.898056	0.258230	0.619788	1782.651000
8.877289	0.275064	0.619174	1783.151000
8.859699	0.292899	0.618463	1783.651000
8.840626	0.310618	0.617637	1784.152000
8.820501	0.328545	0.616674	1784.651000
8.801385	0.345949	0.615548	1785.152000
8.779176	0.363437	0.614063	1785.651000
8.760391	0.380945	0.612544	1786.152000
8.740378	0.398474	0.611050	1786.651000
8.722707	0.415584	0.609490	1787.152000
8.703531	0.432408	0.607803	1787.651000
8.683675	0.448682	0.606057	1788.151000
8.663532	0.464772	0.604160	1788.651000
8.644133	0.480819	0.602393	1789.151000
8.625749	0.496666	0.600523	1789.651000
8.606846	0.511606	0.598751	1790.151000
8.587860	0.526129	0.597041	1790.651000
8.568982	0.540417	0.595131	1791.151000
8.550043	0.554424	0.593022	1791.651000
8.529873	0.567742	0.591000	1792.152000
8.512829	0.580485	0.589066	1792.651000
8.492874	0.592723	0.587169	1793.151000
8.472706	0.604572	0.585294	1793.651000
8.452744	0.615886	0.583555	1794.151000
8.432266	0.626634	0.581694	1794.651000
8.412713	0.637221	0.579825	1795.152000
8.392193	0.647458	0.578099	1795.651000
8.372933	0.657484	0.576448	1796.152000
8.353725	0.667241	0.574683	1796.651000
8.337912	0.676646	0.572837	1797.151000
8.317723	0.685399	0.571101	1797.651000
8.296147	0.693373	0.569373	1798.151000
8.275257	0.700656	0.567624	1798.651000
8.257455	0.707703	0.565875	1799.151000
8.239816	0.714154	0.564277	1799.651000
8.220160	0.719915	0.562686	1800.151000
8.201077	0.724500	0.561145	1800.651000
8.181372	0.728073	0.559499	1801.151000
8.161282	0.730702	0.557852	1801.651000
8.139748	0.732570	0.556191	1802.151000
8.122324	0.733006	0.554576	1802.651000
8.100499	0.732383	0.553100	1803.151000
8.080758	0.729869	0.551538	1803.651000
8.061884	0.726403	0.549874	1804.151000
8.042769	0.721794	0.548281	1804.651000
8.023303	0.715606	0.546929	1805.151000
8.004669	0.707844	0.545611	1805.651000
7.983405	0.698716	0.544210	1806.152000
7.962657	0.688000	0.542792	1806.651000
7.944095	0.675648	0.541420	1807.151000
7.925260	0.662052	0.540014	1807.651000
7.908274	0.646901	0.538787	1808.151000
7.888821	0.630178	0.537768	1808.651000
7.869686	0.611643	0.536721	1809.151000
7.850705	0.591898	0.535710	1809.652000
7.834492	0.570735	0.534660	1810.151000
7.814816	0.548522	0.533488	1810.651000
7.794357	0.525009	0.532211	1811.151000
7.772504	0.500441	0.530941	1811.651000
7.752653	0.474433	0.529735	1812.151000
7.731474	0.447595	0.528593	1812.651000
7.710896	0.420064	0.527663	1813.151000
7.691774	0.392247	0.526792	1813.651000
7.676451	0.364703	0.526002	1814.151000
7.656592	0.338039	0.525288	1814.651000
7.635980	0.312982	0.524706	1815.151000
7.616321	0.289797	0.524254	1815.651000
7.596474	0.269147	0.523896	1816.152000
7.577628	0.250656	0.523406	1816.651000
7.558524	0.235301	0.523020	1817.151000
7.539455	0.223322	0.522455	1817.651000
7.519488	0.215279	0.521996	1818.151000
7.499309	0.210904	0.521575	1818.651000
7.478594	0.210568	0.521151	1819.151000
7.459198	0.213817	0.520758	1819.651000
7.441724	0.220556	0.520367	1820.151000
7.420270	0.230365	0.519867	1820.651000
7.401627	0.242782	0.519345	1821.151000
7.380121	0.256841	0.518644	1821.651000
7.359575	0.271899	0.517696	1822.151000
7.340035	0.287657	0.516633	1822.651000
7.321179	0.304092	0.515572	1823.151000
7.302750	0.320648	0.514530	1823.651000
7.284085	0.337039	0.513224	1824.151000
7.265060	0.353280	0.511638	1824.651000
7.246923	0.369460	0.509940	1825.152000
7.228400	0.385203	0.508178	1825.651000
7.209656	0.400837	0.506449	1826.151000
7.191496	0.415868	0.504788	1826.651000
7.170937	0.430178	0.503122	1827.152000
7.153614	0.443527	0.501323	1827.651000
7.131879	0.456369	0.499381	1828.151000
7.111266	0.468564	0.497469	1828.651000
7.090254	0.480286	0.495472	1829.151000
7.069455	0.491357	0.493547	1829.651000
7.050531	0.501473	0.491643	1830.151000
7.032773	0.511079	0.489822	1830.651000
7.012457	0.519806	0.487960	1831.151000
6.994849	0.527988	0.486031	1831.651000
6.975958	0.534951	0.484404	1832.151000
6.955365	0.540773	0.482882	1832.651000
6.935710	0.545438	0.481228	1833.151000
6.917599	0.549510	0.479561	1833.651000
6.897842	0.552531	0.478046	1834.151000
6.877173	0.554600	0.476591	1834.651000
6.861667	0.555087	0.475067	1835.151000
6.846167	0.554282	0.473508	1835.651000
6.825818	0.551985	0.471913	1836.151000
6.802328	0.548083	0.470223	1836.651000
6.782024	0.542597	0.468662	1837.151000
6.768365	0.535023	0.467309	1837.651000
6.748305	0.525376	0.466067	1838.151000
6.731466	0.513848	0.464832	1838.652000
6.712872	0.500993	0.463516	1839.151000
6.693671	0.486284	0.462244	1839.652000
6.676005	0.469849	0.461032	1840.151000
6.655673	0.451576	0.459956	1840.651000
6.636719	0.431660	0.459017	1841.151000
6.619977	0.410582	0.458145	1841.651000
6.605537	0.389091	0.457239	1842.151000
6.584431	0.367044	0.456213	1842.651000
6.566038	0.344932	0.455268	1843.151000
6.551195	0.323301	0.454485	1843.651000
6.531118	0.302560	0.453915	1844.152000
6.515148	0.283437	0.453486	1844.651000
6.493637	0.266570	0.452960	1845.151000
6.464197	0.251949	0.452437	1845.651000
6.447278	0.240231	0.451882	1846.151000
6.429174	0.231906	0.451208	1846.651000
6.416746	0.227168	0.450461	1847.151000
6.397960	0.225732	0.449820	1847.651000
6.376848	0.227471	0.449297	1848.151000
6.354553	0.233020	0.448606	1848.651000
6.336209	0.241520	0.447918	1849.151000
6.317499	0.252361	0.447065	1849.651000
6.307062	0.264438	0.446127	1850.151000
6.288889	0.277223	0.445117	1850.651000
6.272639	0.290763	0.444272	1851.151000
6.254125	0.305096	0.443287	1851.651000
6.229521	0.319331	0.441998	1852.151000
6.209864	0.333396	0.440705	1852.651000
6.188012	0.347507	0.439349	1853.151000
6.167712	0.361408	0.437782	1853.651000
6.151019	0.374801	0.436147	1854.151000
6.137766	0.387283	0.434415	1854.651000
6.115360	0.398876	0.432682	1855.152000
6.092131	0.409905	0.430865	1855.651000
6.081726	0.419947	0.428931	1856.151000
6.067218	0.428549	0.427054	1856.651000
6.048349	0.436090	0.425300	1857.151000
6.026162	0.442223	0.423679	1857.651000
6.004908	0.447040	0.421899	1858.151000
5.991241	0.450881	0.420164	1858.651000
5.965649	0.452861	0.418604	1859.151000
5.944406	0.453471	0.417118	1859.651000
5.928070	0.452609	0.415595	1860.151000
5.911017	0.450085	0.414106	1860.651000
5.888970	0.445788	0.412776	1861.151000
5.867561	0.439462	0.411441	1861.651000
5.846163	0.431119	0.410070	1862.151000
5.829333	0.420142	0.408601	1862.651000
5.810889	0.406793	0.407207	1863.151000
5.791472	0.391914	0.405833	1863.651000
5.774649	0.375614	0.404522	1864.151000
5.756268	0.358465	0.403277	1864.651000
5.737875	0.340634	0.402210	1865.151000
5.720938	0.322885	0.401182	1865.651000
5.701550	0.305251	0.400117	1866.151000
5.678845	0.288125	0.399249	1866.651000
5.658291	0.272881	0.398514	1867.151000
5.638585	0.260289	0.397878	1867.651000
5.623848	0.250440	0.397199	1868.152000
5.609891	0.243869	0.396500	1868.651000
5.592553	0.240850	0.395800	1869.152000
5.573273	0.240953	0.395131	1869.652000
5.552976	0.244150	0.394533	1870.151000
5.535257	0.250420	0.393907	1870.651000
5.514316	0.259045	0.393195	1871.151000
5.495463	0.268990	0.392391	1871.651000
5.480102	0.280347	0.391475	1872.151000
5.460753	0.292753	0.390287	1872.651000
5.439404	0.305533	0.388915	1873.151000
5.411546	0.318519	0.387605	1873.651000
5.385040	0.331320	0.385882	1874.151000
5.363464	0.343941	0.384279	1874.651000
5.345169	0.355903	0.382505	1875.151000
5.331442	0.366447	0.380677	1875.651000
5.314243	0.375923	0.378929	1876.151000
5.301640	0.383684	0.377278	1876.651000
5.279678	0.389050	0.375550	1877.151000
5.257604	0.392490	0.373808	1877.651000
5.237805	0.393611	0.372258	1878.152000
5.218622	0.392364	0.370710	1878.651000
5.197314	0.388985	0.369096	1879.152000
5.174439	0.383845	0.367528	1879.651000
5.154721	0.376136	0.366069	1880.151000
5.137634	0.365716	0.364711	1880.651000
5.118870	0.353617	0.363237	1881.151000
5.100823	0.340176	0.361894	1881.651000
5.082414	0.325646	0.360591	1882.151000
5.058850	0.310688	0.359547	1882.652000
5.040493	0.296010	0.358698	1883.151000
5.021028	0.282736	0.357963	1883.651000
5.000140	0.271425	0.357144	1884.151000
4.981250	0.262669	0.356214	1884.652000
4.961892	0.256919	0.355193	1885.151000
4.941211	0.254470	0.354165	1885.651000
4.922174	0.255553	0.353131	1886.151000
4.905815	0.260393	0.352136	1886.651000
4.883462	0.268157	0.351207	1887.151000
4.862800	0.277840	0.350180	1887.651000
4.845143	0.288723	0.349119	1888.151000
4.825548	0.300317	0.347848	1888.651000
4.798859	0.311759	0.346436	1889.151000
4.776007	0.322779	0.344900	1889.651000
4.754874	0.333115	0.343246	1890.151000
4.737943	0.342109	0.341600	1890.651000
4.718900	0.349270	0.340032	1891.151000
4.698183	0.354635	0.338435	1891.651000
4.677401	0.357431	0.336824	1892.151000
4.658209	0.357153	0.335216	1892.652000
4.640106	0.354225	0.333500	1893.151000
4.621857	0.349145	0.331842	1893.651000
4.603467	0.342004	0.330259	1894.151000
4.582860	0.332376	0.328809	1894.651000
4.564327	0.321212	0.327584	1895.152000
4.546752	0.309678	0.326373	1895.651000
4.526895	0.298399	0.325174	1896.152000
4.506797	0.287907	0.324082	1896.651000
4.486700	0.279278	0.323125	1897.151000
4.467880	0.272845	0.322107	1897.651000
4.448567	0.269272	0.321040	1898.151000
4.430678	0.269005	0.320008	1898.651000
4.413305	0.271804	0.318770	1899.151000
4.393723	0.277235	0.317615	1899.651000
4.372479	0.284673	0.316620	1900.151000
4.353009	0.293234	0.315455	1900.651000
4.332647	0.302182	0.314239	1901.151000
4.314219	0.311189	0.312920	1901.651000
4.297584	0.320113	0.311442	1902.151000
4.277564	0.327846	0.309947	1902.651000
4.258942	0.334119	0.308377	1903.151000
4.240070	0.337777	0.306866	1903.651000
4.221171	0.338717	0.305566	1904.151000
4.203068	0.337676	0.304118	1904.651000
4.184460	0.334685	0.302563	1905.151000
4.165607	0.329481	0.301201	1905.651000
4.146147	0.322261	0.299905	1906.151000
4.127681	0.313621	0.298664	1906.651000
4.107812	0.304678	0.297501	1907.152000
4.087707	0.296246	0.296402	1907.651000
4.066382	0.289084	0.295262	1908.151000
4.047637	0.284302	0.294247	1908.651000
4.030354	0.282371	0.293319	1909.152000
4.011514	0.283628	0.292339	1909.651000
3.992712	0.287061	0.291417	1910.152000
3.973236	0.292350	0.290452	1910.651000
3.953279	0.299054	0.289337	1911.151000
3.934508	0.306439	0.288098	1911.651000
3.913267	0.314063	0.286810	1912.151000
3.893153	0.320861	0.285447	1912.651000
3.874537	0.326238	0.284045	1913.151000
3.855354	0.329347	0.282519	1913.651000
3.836249	0.329947	0.280938	1914.151000
3.815834	0.328262	0.279349	1914.652000
3.796008	0.324479	0.277857	1915.151000
3.777319	0.319066	0.276473	1915.651000
3.757726	0.312424	0.275202	1916.151000
3.738226	0.305758	0.274089	1916.651000
3.719382	0.299993	0.272900	1917.151000
3.700428	0.295899	0.271735	1917.651000
3.681985	0.294461	0.270667	1918.151000
3.663070	0.295524	0.269744	1918.651000
3.644770	0.298866	0.268782	1919.151000
3.624537	0.303791	0.267713	1919.651000
3.603809	0.309376	0.266652	1920.151000
3.583306	0.315490	0.265408	1920.651000
3.563903	0.321157	0.264093	1921.151000
3.545822	0.325169	0.262455	1921.651000
3.527673	0.326645	0.260829	1922.151000
3.506242	0.326195	0.259303	1922.652000
3.486704	0.323719	0.257952	1923.151000
3.467580	0.319667	0.256623	1923.651000
3.450615	0.315377	0.255313	1924.151000
3.430429	0.310603	0.254019	1924.651000
3.410575	0.306949	0.252783	1925.151000
3.389335	0.305502	0.251526	1925.651000
3.371113	0.306479	0.250212	1926.151000
3.353940	0.309335	0.248964	1926.651000
3.333449	0.313700	0.247802	1927.151000
3.313790	0.318497	0.246646	1927.651000
3.295064	0.322805	0.245481	1928.151000
3.275692	0.325995	0.244396	1928.651000
3.258071	0.327888	0.243020	1929.151000
3.239563	0.327906	0.241641	1929.651000
3.220897	0.326198	0.240336	1930.151000
3.201791	0.323346	0.239088	1930.651000
3.181902	0.319904	0.237919	1931.151000
3.163530	0.317091	0.236697	1931.651000
3.145145	0.316147	0.235515	1932.151000
3.127406	0.316676	0.234376	1932.651000
3.110542	0.318877	0.233270	1933.151000
3.089166	0.322154	0.232170	1933.652000
3.072630	0.325597	0.230888	1934.151000
3.051648	0.328640	0.229434	1934.651000
3.030029	0.330731	0.227919	1935.151000
3.010167	0.331685	0.226573	1935.651000
2.990729	0.331364	0.225386	1936.151000
2.970448	0.329972	0.224283	1936.651000
2.953138	0.328485	0.223193	1937.151000
2.934950	0.327241	0.221997	1937.651000
2.917328	0.327016	0.220760	1938.152000
2.899348	0.328413	0.219634	1938.651000
2.880068	0.330448	0.218559	1939.151000
2.859332	0.332807	0.217380	1939.651000
2.839732	0.334719	0.215883	1940.151000
2.821105	0.335829	0.214214	1940.651000
2.802580	0.335970	0.212826	1941.151000
2.783999	0.335267	0.211599	1941.651000
2.764290	0.334062	0.210331	1942.151000
2.746387	0.333358	0.209260	1942.651000
2.727134	0.333957	0.208126	1943.151000
2.709918	0.335366	0.206931	1943.651000
2.687351	0.337321	0.205722	1944.151000
2.667102	0.339310	0.204427	1944.651000
2.648339	0.340591	0.203256	1945.151000
2.629621	0.341224	0.202044	1945.651000
2.609805	0.341184	0.200725	1946.151000
2.590658	0.341074	0.199483	1946.651000
2.571252	0.341397	0.198269	1947.151000
2.553147	0.341932	0.197068	1947.651000
2.534558	0.342907	0.195688	1948.151000
2.517055	0.344194	0.194266	1948.651000
2.497937	0.345552	0.193011	1949.151000
2.479030	0.346617	0.191600	1949.651000
2.460058	0.347203	0.190235	1950.151000
2.437472	0.347654	0.189024	1950.651000
2.416306	0.347961	0.187836	1951.151000
2.396554	0.348359	0.186712	1951.651000
2.377989	0.349204	0.185394	1952.151000
2.358311	0.350336	0.183797	1952.651000
2.337677	0.351282	0.182403	1953.151000
2.317198	0.351942	0.181169	1953.651000
2.298558	0.352687	0.179790	1954.151000
2.279532	0.353642	0.178515	1954.651000
2.261368	0.354680	0.177440	1955.151000
2.242255	0.355784	0.176360	1955.651000
2.222369	0.356894	0.175104	1956.151000
2.202207	0.357975	0.173854	1956.651000
2.183292	0.359048	0.172767	1957.151000
2.166558	0.360096	0.171642	1957.651000
2.147387	0.361125	0.170211	1958.151000
2.128194	0.362181	0.168574	1958.651000
2.110121	0.363115	0.167102	1959.151000
2.090347	0.364164	0.165787	1959.651000
2.070918	0.365368	0.164507	1960.151000
2.050607	0.366317	0.163508	1960.651000
2.028806	0.367300	0.162329	1961.151000
2.011916	0.368690	0.161129	1961.651000
1.992835	0.370189	0.159936	1962.151000
1.979461	0.370640	0.158658	1962.651000
1.959883	0.371053	0.157445	1963.151000
1.941938	0.371081	0.156312	1963.651000
1.918595	0.371486	0.155195	1964.151000
1.895875	0.372028	0.154075	1964.652000
1.877826	0.372649	0.152794	1965.151000
1.862225	0.374068	0.151296	1965.651000
1.842367	0.375576	0.149760	1966.151000
1.826407	0.376828	0.148364	1966.651000
1.803583	0.377864	0.147026	1967.151000
1.784119	0.376812	0.145811	1967.651000
1.768813	0.376394	0.144716	1968.151000
1.748501	0.377565	0.143570	1968.651000
1.728295	0.379127	0.142209	1969.151000
1.708190	0.381028	0.141029	1969.651000
1.690290	0.383033	0.139867	1970.151000
1.674135	0.384505	0.138604	1970.651000
1.653885	0.385909	0.137412	1971.151000
1.632462	0.386723	0.136053	1971.651000
1.615309	0.387069	0.134609	1972.151000
1.598482	0.387688	0.133237	1972.651000
1.580740	0.388545	0.131926	1973.151000
1.564388	0.389739	0.130872	1973.651000
1.547416	0.390930	0.129811	1974.151000
1.524172	0.391366	0.128873	1974.651000
1.506576	0.392228	0.127863	1975.151000
1.486453	0.392672	0.126635	1975.652000
1.467097	0.393176	0.125212	1976.151000
1.446979	0.394915	0.123929	1976.651000
1.430269	0.397106	0.122630	1977.151000
1.413606	0.399387	0.121343	1977.651000
1.399855	0.402229	0.119922	1978.151000
1.376168	0.403144	0.118608	1978.651000
1.353182	0.403523	0.117328	1979.151000
1.334082	0.404398	0.116159	1979.651000
1.320429	0.405024	0.115012	1980.151000
1.301002	0.405822	0.113688	1980.651000
1.283813	0.407006	0.112369	1981.151000
1.268463	0.407730	0.111152	1981.651000
1.254486	0.408281	0.109912	1982.151000
1.228336	0.409146	0.108737	1982.651000
1.212606	0.410396	0.107834	1983.151000
1.192160	0.410974	0.107058	1983.652000
1.164810	0.411401	0.105988	1984.151000
1.144214	0.411581	0.104666	1984.651000
1.124446	0.412047	0.103499	1985.151000
1.106986	0.412780	0.102362	1985.651000
1.091262	0.414081	0.101181	1986.151000
1.076544	0.413780	0.099952	1986.651000
1.059350	0.414134	0.098571	1987.151000
1.043325	0.415495	0.096962	1987.651000
1.022601	0.417280	0.095576	1988.151000
0.998304	0.419341	0.094237	1988.651000
0.981739	0.421527	0.092765	1989.151000
0.957274	0.422670	0.091493	1989.651000
0.941533	0.423247	0.090232	1990.151000
0.924221	0.424741	0.088850	1990.651000
0.901678	0.425340	0.087585	1991.151000
0.883179	0.425887	0.086483	1991.651000
0.870480	0.426913	0.085352	1992.151000
0.847627	0.428567	0.084229	1992.651000
0.826225	0.430359	0.083181	1993.151000
0.808408	0.431926	0.082004	1993.651000
0.793915	0.433555	0.080530	1994.151000
0.777369	0.434762	0.078989	1994.651000
0.758085	0.435843	0.077575	1995.151000
0.733508	0.436315	0.076367	1995.651000
0.720255	0.436920	0.075320	1996.151000
0.702997	0.438054	0.074235	1996.651000
0.679311	0.439537	0.073056	1997.152000
0.661125	0.440722	0.071908	1997.651000
0.644601	0.441623	0.070657	1998.151000
0.625690	0.442471	0.069424	1998.652000
0.597256	0.443721	0.068140	1999.151000
0.580274	0.445156	0.066979	1999.651000
0.567721	0.446622	0.065959	2000.151000
0.534937	0.447660	0.064787	2000.651000
0.522791	0.448365	0.063485	2001.151000
0.494098	0.450217	0.062263	2001.651000
0.480600	0.451947	0.060968	2002.151000
0.465624	0.453003	0.059576	2002.652000
0.443470	0.453766	0.058192	2003.151000
0.428121	0.454610	0.056883	2003.651000
0.412931	0.455817	0.055507	2004.151000
0.392979	0.456724	0.054178	2004.651000
0.372831	0.457332	0.052902	2005.151000
0.354419	0.458094	0.051528	2005.651000
0.336383	0.459092	0.050215	2006.151000
0.316272	0.460811	0.049141	2006.651000
0.298563	0.462593	0.048083	2007.151000
0.279620	0.463568	0.046921	2007.651000
0.258442	0.464885	0.045596	2008.151000
0.241132	0.465940	0.044423	2008.651000
0.224986	0.466519	0.043289	2009.151000
0.205271	0.467640	0.042099	2009.651000
0.182788	0.469200	0.040977	2010.151000
0.161071	0.471132	0.039863	2010.651000
0.140015	0.472844	0.038801	2011.152000
0.114985	0.473818	0.037712	2011.651000
0.091385	0.474373	0.036696	2012.151000
0.081837	0.474427	0.035650	2012.651000
0.082098	0.474923	0.034546	2013.151000
0.082129	0.476299	0.033308	2013.651000
0.082358	0.477927	0.032052	2014.151000
0.082483	0.479510	0.031001	2014.651000
0.082624	0.480778	0.030066	2015.151000
0.082720	0.481425	0.029226	2015.652000
