Data run started at:  Tuesday, October 17, 2017	2:34:24 PM
magnet(A)	lockin1(V)	lockin2(V)	time (sec)
NaN	NaN	NaN	7.319000
0.032224	0.488559	-0.004408	7.480000
0.032239	0.488661	-0.004795	7.980000
0.032499	0.488353	-0.005147	8.479000
0.032932	0.487701	-0.005240	8.979000
0.042432	0.487395	-0.005236	9.479000
0.061197	0.486996	-0.005240	9.980000
0.087999	0.486561	-0.005248	10.479000
0.109459	0.486397	-0.005050	10.980000
0.129462	0.486500	-0.004632	11.479000
0.150920	0.486679	-0.004067	11.979000
0.169658	0.486462	-0.003414	12.479000
0.184224	0.486111	-0.002723	12.979000
0.202869	0.485791	-0.001772	13.479000
0.221051	0.485313	-0.000455	13.979000
0.238278	0.484855	0.001055	14.479000
0.254932	0.484651	0.002305	14.979000
0.269057	0.484495	0.003096	15.480000
0.287906	0.484085	0.003817	15.979000
0.309019	0.483511	0.004773	16.480000
0.329602	0.482643	0.006090	16.979000
0.349212	0.481673	0.007202	17.480000
0.366695	0.480804	0.008087	17.979000
0.387470	0.479896	0.009229	18.479000
0.404669	0.478850	0.010488	18.979000
0.422879	0.477672	0.011370	19.479000
0.440674	0.476315	0.012446	19.980000
0.462765	0.475308	0.013803	20.479000
0.488278	0.474443	0.014970	20.980000
0.514933	0.473206	0.016002	21.479000
0.524683	0.471411	0.017045	21.980000
0.545122	0.469871	0.018024	22.479000
0.573895	0.468720	0.019315	22.980000
0.595344	0.467615	0.020608	23.479000
0.616428	0.466368	0.021970	23.979000
0.637964	0.465214	0.023416	24.479000
0.660218	0.464321	0.024793	24.979000
0.677283	0.463383	0.026075	25.480000
0.691721	0.462343	0.027285	25.979000
0.719381	0.461282	0.028547	26.480000
0.739790	0.460077	0.029921	26.979000
0.751882	0.458970	0.031205	27.479000
0.770370	0.457732	0.032700	27.979000
0.796189	0.456481	0.034105	28.479000
0.816997	0.455526	0.035573	28.980000
0.826834	0.454506	0.037143	29.479000
0.840248	0.453492	0.038706	29.980000
0.862411	0.452612	0.040098	30.479000
0.882101	0.451614	0.041286	30.979000
0.899700	0.450485	0.042516	31.479000
0.918457	0.449365	0.043679	31.979000
0.940926	0.448160	0.044887	32.479000
0.963692	0.447109	0.045971	32.979000
0.990497	0.446062	0.047081	33.479000
1.001910	0.444908	0.048230	33.980000
1.017825	0.443732	0.049389	34.479000
1.037714	0.442644	0.050633	34.979000
1.054049	0.441708	0.051876	35.480000
1.069949	0.440873	0.053085	35.979000
1.090237	0.439888	0.054418	36.479000
1.111384	0.438680	0.055692	36.979000
1.135675	0.437375	0.056846	37.479000
1.155650	0.436103	0.058000	37.979000
1.170800	0.434940	0.059317	38.479000
1.191351	0.433725	0.060747	38.979000
1.211145	0.432546	0.062170	39.479000
1.228006	0.431378	0.063485	39.979000
1.248004	0.430048	0.064705	40.479000
1.265037	0.428658	0.066009	40.979000
1.284656	0.427657	0.067459	41.479000
1.304409	0.426752	0.068795	41.980000
1.322128	0.425954	0.069998	42.479000
1.343934	0.425276	0.071303	42.979000
1.359372	0.424544	0.072645	43.479000
1.377573	0.423842	0.073987	43.979000
1.396472	0.423073	0.075278	44.480000
1.415814	0.422322	0.076566	44.979000
1.435969	0.421402	0.077963	45.480000
1.452686	0.420232	0.079332	45.979000
1.469383	0.419015	0.080662	46.479000
1.488136	0.417817	0.081993	46.979000
1.508592	0.416744	0.083295	47.479000
1.526264	0.415750	0.084666	47.979000
1.545250	0.414873	0.086025	48.480000
1.564550	0.413768	0.087250	48.979000
1.583811	0.412611	0.088325	49.479000
1.602910	0.411798	0.089442	49.980000
1.620835	0.411153	0.090743	50.479000
1.640748	0.410514	0.092076	50.979000
1.661253	0.409616	0.093354	51.479000
1.679517	0.408540	0.094560	51.980000
1.697801	0.407495	0.095860	52.479000
1.717500	0.406688	0.097302	52.979000
1.737652	0.406035	0.098667	53.479000
1.760429	0.405383	0.099937	53.979000
1.780079	0.404794	0.100995	54.480000
1.797467	0.403860	0.102061	54.979000
1.816742	0.402753	0.103302	55.480000
1.835848	0.401719	0.104588	55.979000
1.855935	0.400792	0.105758	56.479000
1.877170	0.400006	0.106994	56.979000
1.895866	0.398941	0.108384	57.479000
1.914718	0.398040	0.109747	57.979000
1.935055	0.397479	0.111153	58.480000
1.954899	0.396655	0.112338	58.979000
1.975862	0.395666	0.113514	59.479000
1.995023	0.394684	0.114854	59.979000
2.014954	0.393844	0.116393	60.479000
2.032906	0.393068	0.117896	60.980000
2.051142	0.392218	0.119289	61.479000
2.069974	0.391301	0.120614	61.980000
2.090344	0.390799	0.121814	62.479000
2.109800	0.390242	0.122969	62.979000
2.127907	0.389274	0.124312	63.479000
2.147950	0.388239	0.125567	63.979000
2.167971	0.387309	0.126864	64.480000
2.187682	0.386514	0.128177	64.979000
2.205983	0.385503	0.129497	65.480000
2.225022	0.384799	0.130794	65.979000
2.246523	0.384493	0.131942	66.480000
2.266662	0.384115	0.133302	66.979000
2.285396	0.383753	0.134743	67.480000
2.306014	0.383054	0.136019	67.979000
2.324294	0.382240	0.137244	68.480000
2.344436	0.381372	0.138486	68.979000
2.363993	0.380512	0.139847	69.479000
2.384316	0.379891	0.141200	69.979000
2.404113	0.379489	0.142569	70.479000
2.423552	0.379120	0.143831	70.980000
2.443855	0.378638	0.144963	71.479000
2.463576	0.378237	0.146353	71.979000
2.484033	0.377461	0.147870	72.479000
2.501616	0.376482	0.149412	72.979000
2.520596	0.375642	0.150690	73.479000
2.541618	0.375143	0.151941	73.979000
2.561651	0.374458	0.153161	74.479000
2.581610	0.373492	0.154420	74.979000
2.600643	0.372855	0.155659	75.479000
2.619728	0.372297	0.156909	75.979000
2.641885	0.371554	0.158267	76.480000
2.662839	0.370673	0.159569	76.979000
2.683975	0.369893	0.160966	77.479000
2.704044	0.369293	0.162307	77.979000
2.723919	0.368735	0.163583	78.480000
2.744885	0.368233	0.164796	78.979000
2.766054	0.367644	0.166277	79.479000
2.786538	0.366796	0.167660	79.980000
2.806895	0.366121	0.169159	80.479000
2.829153	0.365789	0.170599	80.979000
2.851143	0.365504	0.171864	81.479000
2.871051	0.365187	0.173055	81.980000
2.891868	0.364700	0.174393	82.479000
2.912805	0.363852	0.175879	82.979000
2.931761	0.362835	0.177429	83.479000
2.954233	0.362083	0.178872	83.979000
2.976644	0.361405	0.180375	84.479000
2.999134	0.360908	0.181862	84.979000
3.021429	0.360394	0.183326	85.479000
3.042499	0.359958	0.184681	85.979000
3.064358	0.359494	0.186041	86.479000
3.083783	0.358884	0.187445	86.979000
3.103205	0.358406	0.188847	87.479000
3.123838	0.358021	0.190251	87.979000
3.144730	0.357798	0.191593	88.480000
3.167666	0.357325	0.192991	88.979000
3.187688	0.356730	0.194467	89.479000
3.208375	0.356153	0.196058	89.979000
3.229068	0.355499	0.197419	90.479000
3.250506	0.355192	0.198785	90.979000
3.270084	0.354933	0.200182	91.479000
3.290078	0.354794	0.201505	91.979000
3.311530	0.354402	0.202673	92.479000
3.332854	0.353721	0.203864	92.980000
3.353269	0.352991	0.205194	93.479000
3.373099	0.351713	0.206436	93.980000
3.393830	0.350659	0.207751	94.479000
3.414762	0.350181	0.209053	94.979000
3.435069	0.349847	0.210500	95.479000
3.454382	0.349654	0.211936	95.979000
3.474826	0.349439	0.213367	96.480000
3.494238	0.349264	0.214862	96.979000
3.515032	0.349111	0.216190	97.480000
3.537493	0.349023	0.217544	97.979000
3.559559	0.348721	0.218867	98.479000
3.580947	0.348059	0.220294	98.979000
3.602513	0.347211	0.221684	99.479000
3.623600	0.346432	0.223120	99.979000
3.643960	0.345702	0.224658	100.479000
3.664164	0.345171	0.226250	100.979000
3.684732	0.345057	0.227805	101.479000
3.706189	0.345005	0.229108	101.979000
3.728961	0.344974	0.230495	102.479000
3.750376	0.345083	0.231942	102.980000
3.771795	0.345138	0.233376	103.479000
3.793703	0.345177	0.234771	103.980000
3.815925	0.344872	0.236191	104.479000
3.837938	0.344112	0.237659	104.979000
3.857632	0.342970	0.239036	105.479000
3.877434	0.341813	0.240379	105.979000
3.898364	0.340901	0.241711	106.480000
3.920976	0.340132	0.242990	106.979000
3.942449	0.339455	0.244368	107.480000
3.962223	0.339008	0.245646	107.979000
3.980199	0.338801	0.247051	108.479000
3.997179	0.338860	0.248346	108.979000
4.017525	0.339091	0.249785	109.479000
4.037772	0.339394	0.251286	109.979000
4.056996	0.340066	0.252796	110.479000
4.075944	0.340958	0.254180	110.979000
4.096756	0.341761	0.255714	111.479000
4.117061	0.341964	0.257336	111.980000
4.136627	0.341788	0.258897	112.479000
4.155567	0.341284	0.260336	112.980000
4.175460	0.340585	0.261608	113.479000
4.195397	0.339568	0.262949	113.980000
4.215368	0.338633	0.264347	114.479000
4.234523	0.337437	0.265768	114.979000
4.254398	0.336399	0.267010	115.479000
4.274109	0.335738	0.268238	115.979000
4.295109	0.335210	0.269378	116.480000
4.315474	0.334556	0.270509	116.979000
4.338062	0.334170	0.271759	117.479000
4.359837	0.334220	0.273124	117.979000
4.379224	0.334783	0.274359	118.479000
4.398317	0.335667	0.275697	118.979000
4.419741	0.336824	0.277015	119.479000
4.439064	0.337904	0.278140	119.979000
4.458853	0.338949	0.279224	120.479000
4.480599	0.339986	0.280550	120.979000
4.502511	0.340644	0.281859	121.479000
4.522742	0.340591	0.283155	121.980000
4.544101	0.339789	0.284527	122.479000
4.563931	0.338515	0.285882	122.979000
4.584707	0.337262	0.287274	123.479000
4.605715	0.335814	0.288571	123.979000
4.625377	0.334030	0.290025	124.479000
4.645413	0.332358	0.291520	124.979000
4.665224	0.330712	0.293198	125.479000
4.685175	0.329374	0.294874	125.979000
4.705811	0.328277	0.296405	126.479000
4.725534	0.327596	0.297684	126.979000
4.745715	0.327636	0.298931	127.479000
4.765564	0.328397	0.300204	127.979000
4.785388	0.329349	0.301443	128.479000
4.805289	0.330814	0.302703	128.979000
4.825745	0.332584	0.303899	129.480000
4.846277	0.334420	0.305003	129.979000
4.865947	0.336540	0.305996	130.479000
4.888009	0.338866	0.307098	130.979000
4.908325	0.340930	0.308322	131.479000
4.928127	0.342465	0.309698	131.980000
4.948343	0.343405	0.311257	132.479000
4.969096	0.343858	0.313037	132.979000
4.989893	0.344034	0.314531	133.479000
5.010172	0.343642	0.315945	133.979000
5.030143	0.342450	0.317368	134.479000
5.050479	0.340914	0.318749	134.979000
5.072425	0.338750	0.320267	135.479000
5.093317	0.336201	0.321595	135.979000
5.113001	0.333536	0.322853	136.479000
5.133791	0.330822	0.324062	136.979000
5.152659	0.328365	0.325304	137.479000
5.173259	0.326351	0.326737	137.979000
5.194244	0.324850	0.328189	138.479000
5.215714	0.323803	0.329587	138.979000
5.236774	0.323232	0.331001	139.480000
5.254408	0.323345	0.332556	139.979000
5.275361	0.324186	0.333903	140.479000
5.295255	0.325492	0.335145	140.979000
5.314539	0.327232	0.336179	141.479000
5.334749	0.329317	0.337092	141.980000
5.355188	0.332079	0.338152	142.479000
5.377997	0.335351	0.339346	142.980000
5.399463	0.338808	0.340534	143.479000
5.419212	0.342434	0.341764	143.979000
5.439011	0.345661	0.343149	144.479000
5.459366	0.348645	0.344618	144.979000
5.479439	0.351456	0.346096	145.479000
5.500330	0.353599	0.347583	145.979000
5.521626	0.354964	0.349108	146.479000
5.540249	0.355516	0.350645	146.979000
5.558941	0.355344	0.352122	147.479000
5.579656	0.354695	0.353554	147.979000
5.599163	0.353307	0.354994	148.480000
5.619593	0.351143	0.356358	148.979000
5.642298	0.348687	0.357757	149.479000
5.664893	0.345822	0.359244	149.979000
5.683126	0.342619	0.360794	150.479000
5.703451	0.339106	0.362390	150.979000
5.724622	0.335593	0.363962	151.479000
5.744147	0.332066	0.365414	151.980000
5.764338	0.328718	0.366768	152.479000
5.782947	0.325514	0.368151	152.979000
5.802470	0.322770	0.369609	153.479000
5.822650	0.320768	0.370974	153.979000
5.845115	0.319432	0.372018	154.479000
5.863902	0.318524	0.372910	154.979000
5.884922	0.318420	0.373877	155.479000
5.905917	0.319113	0.375003	155.979000
5.927121	0.320800	0.376227	156.479000
5.945697	0.323372	0.377463	156.979000
5.968529	0.326728	0.378706	157.479000
5.990056	0.330895	0.379911	157.979000
6.007612	0.335500	0.381125	158.480000
6.023099	0.340110	0.382335	158.979000
6.043151	0.344983	0.383575	159.479000
6.066195	0.349958	0.384856	159.979000
6.082800	0.355151	0.386218	160.479000
6.100418	0.360115	0.387456	160.979000
6.119679	0.364623	0.388631	161.480000
6.139133	0.368813	0.389906	161.979000
6.159597	0.372610	0.391236	162.479000
6.179216	0.375805	0.392573	162.979000
6.196781	0.378483	0.393946	163.479000
6.214894	0.380491	0.395106	163.979000
6.234112	0.381735	0.396440	164.479000
6.253888	0.382207	0.397848	164.980000
6.269817	0.381831	0.399154	165.479000
6.288681	0.380969	0.400569	165.979000
6.306964	0.379936	0.401999	166.479000
6.328462	0.378500	0.403482	166.980000
6.346906	0.376591	0.405045	167.479000
6.364759	0.373876	0.406602	167.979000
6.384265	0.370345	0.407946	168.480000
6.401033	0.366767	0.409221	168.979000
6.423697	0.362959	0.410599	169.479000
6.445089	0.358536	0.411948	169.979000
6.462881	0.353905	0.413207	170.479000
6.480792	0.348801	0.414543	170.979000
6.498648	0.343568	0.415768	171.479000
6.517386	0.338552	0.417006	171.979000
6.536603	0.333716	0.418306	172.479000
6.557023	0.328683	0.419710	172.979000
6.575063	0.324417	0.421130	173.479000
6.593093	0.320583	0.422469	173.979000
6.612234	0.317235	0.423627	174.479000
6.630943	0.314874	0.424660	174.980000
6.652361	0.313195	0.425766	175.479000
6.671304	0.312391	0.426837	175.979000
6.690363	0.312564	0.428013	176.479000
6.707672	0.313537	0.429359	176.980000
6.727317	0.315412	0.430669	177.480000
6.747976	0.318074	0.431676	177.979000
6.767351	0.321547	0.432493	178.480000
6.787666	0.325942	0.433301	178.979000
6.805191	0.331292	0.434203	179.479000
6.826874	0.337430	0.435125	179.979000
6.847031	0.344127	0.436008	180.479000
6.866199	0.351274	0.437058	180.979000
6.886829	0.358930	0.438137	181.479000
6.906488	0.366506	0.439325	181.979000
6.926019	0.374249	0.440619	182.479000
6.946118	0.381925	0.441869	182.979000
6.966256	0.389362	0.443093	183.479000
6.986213	0.396384	0.444401	183.980000
7.005100	0.402927	0.445650	184.479000
7.026896	0.409168	0.446994	184.979000
7.048085	0.415028	0.448538	185.479000
7.068317	0.420321	0.450235	185.979000
7.087592	0.425122	0.451780	186.479000
7.106647	0.429118	0.453195	186.979000
7.127728	0.432492	0.454278	187.479000
7.147464	0.435158	0.455341	187.979000
7.166503	0.436801	0.456721	188.479000
7.184082	0.437384	0.458228	188.979000
7.203103	0.437268	0.459670	189.479000
7.222737	0.436964	0.461103	189.979000
7.243315	0.436233	0.462608	190.480000
7.261856	0.434908	0.464177	190.979000
7.281750	0.433008	0.465893	191.479000
7.301169	0.430404	0.467706	191.979000
7.321576	0.427419	0.469393	192.479000
7.342478	0.423974	0.470979	192.980000
7.361369	0.420237	0.472247	193.479000
7.380602	0.415940	0.473521	193.980000
7.399016	0.410993	0.474838	194.479000
7.419611	0.405610	0.476187	194.979000
7.439682	0.399610	0.477772	195.479000
7.459203	0.393234	0.479597	195.980000
7.478883	0.386741	0.481385	196.479000
7.498358	0.380024	0.482975	196.979000
7.518433	0.373216	0.484435	197.479000
7.538458	0.366167	0.485957	197.979000
7.558945	0.359005	0.487333	198.480000
7.580221	0.351754	0.488650	198.979000
7.602032	0.344710	0.489951	199.479000
7.624146	0.337845	0.491186	199.979000
7.644239	0.331440	0.492286	200.480000
7.665358	0.325600	0.493492	200.979000
7.685065	0.320224	0.494653	201.479000
7.705585	0.315616	0.495838	201.979000
7.725943	0.311434	0.497007	202.479000
7.746633	0.308285	0.498165	202.981000
7.767572	0.306427	0.499311	203.479000
7.788801	0.305941	0.500528	203.980000
7.809696	0.306759	0.501517	204.479000
7.831118	0.308693	0.502489	204.980000
7.852693	0.311542	0.503465	205.479000
7.873035	0.316068	0.504431	205.979000
7.892661	0.322151	0.505431	206.479000
7.911490	0.329582	0.506581	206.979000
7.930162	0.338109	0.507792	207.479000
7.947951	0.347805	0.508737	207.979000
7.967112	0.358211	0.509665	208.479000
7.986331	0.369009	0.510649	208.979000
8.006994	0.380242	0.511803	209.480000
8.027519	0.391898	0.512909	209.979000
8.046861	0.403427	0.513960	210.480000
8.065542	0.414847	0.515185	210.979000
8.084119	0.426255	0.516407	211.480000
8.105175	0.437568	0.517565	211.979000
8.125711	0.448732	0.518657	212.479000
8.146437	0.459769	0.519758	212.979000
8.166156	0.470414	0.520830	213.479000
8.185536	0.480183	0.521935	213.980000
8.205678	0.489193	0.523036	214.479000
8.224280	0.497893	0.524189	214.979000
8.244016	0.505979	0.525436	215.479000
8.264832	0.513315	0.526788	215.979000
8.283798	0.519968	0.528272	216.479000
8.304180	0.525754	0.529792	216.980000
8.324715	0.530848	0.531272	217.479000
8.343655	0.535513	0.532629	217.979000
8.362609	0.539985	0.534089	218.479000
8.382473	0.543578	0.535515	218.979000
8.402411	0.546330	0.536853	219.480000
8.423124	0.548720	0.538261	219.979000
8.444808	0.550334	0.539787	220.480000
8.463653	0.550948	0.541186	220.979000
8.484259	0.551012	0.542511	221.479000
8.505115	0.550623	0.543854	221.979000
8.525473	0.549517	0.545272	222.479000
8.545444	0.547577	0.546891	222.979000
8.564424	0.545225	0.548603	223.479000
8.583618	0.542475	0.550285	223.980000
8.604506	0.539218	0.551776	224.479000
8.625681	0.535118	0.553258	224.979000
8.646161	0.530833	0.554769	225.479000
8.667059	0.526009	0.556413	225.980000
8.686975	0.521296	0.558236	226.479000
8.707870	0.516270	0.559943	226.979000
8.727655	0.511156	0.561631	227.479000
8.749475	0.505602	0.563315	227.979000
8.769206	0.499638	0.564899	228.479000
8.788828	0.493395	0.566524	228.979000
8.808605	0.486943	0.568224	229.480000
8.826789	0.480203	0.569951	229.979000
8.846573	0.473060	0.571336	230.479000
8.864011	0.465565	0.572955	230.979000
8.882959	0.457648	0.574543	231.479000
8.902362	0.449438	0.576312	231.979000
8.921994	0.441101	0.578044	232.479000
8.942545	0.432677	0.579636	232.979000
8.962308	0.424107	0.581015	233.479000
8.982467	0.415302	0.582410	233.980000
9.001666	0.406330	0.584016	234.479000
9.021151	0.397432	0.585669	234.980000
9.040120	0.388393	0.587251	235.479000
9.059396	0.379513	0.588661	235.979000
9.078168	0.370558	0.589972	236.479000
9.098627	0.361333	0.591172	236.979000
9.118497	0.352205	0.592495	237.479000
9.138054	0.343657	0.593789	237.979000
9.158212	0.335442	0.595078	238.479000
9.177874	0.327643	0.596403	238.979000
9.198514	0.320148	0.597482	239.479000
9.218756	0.313368	0.598488	239.979000
9.239584	0.307631	0.599235	240.480000
9.258088	0.303046	0.599764	240.979000
9.277588	0.299547	0.600457	241.479000
9.298071	0.297366	0.601278	241.979000
9.319165	0.296203	0.602127	242.479000
9.338526	0.296380	0.602839	242.979000
9.358473	0.298327	0.603486	243.479000
9.381452	0.301867	0.604198	243.979000
9.400701	0.306784	0.605093	244.479000
9.421161	0.313272	0.605952	244.979000
9.438470	0.321385	0.606775	245.479000
9.459505	0.331402	0.607596	245.980000
9.479977	0.342685	0.608395	246.479000
9.500296	0.354813	0.609135	246.979000
9.521341	0.367749	0.609896	247.479000
9.542307	0.381625	0.610653	247.979000
9.562401	0.396356	0.611549	248.479000
9.580282	0.411707	0.612462	248.979000
9.600800	0.427365	0.613453	249.479000
9.618997	0.443182	0.614622	249.979000
9.638559	0.459211	0.615834	250.479000
9.658719	0.475407	0.617020	250.979000
9.678793	0.491674	0.618146	251.479000
9.697823	0.507557	0.619357	251.979000
9.717989	0.522996	0.620499	252.479000
9.738419	0.538233	0.621701	252.979000
9.759232	0.553246	0.622799	253.479000
9.779590	0.568153	0.623793	253.979000
9.800189	0.582602	0.625016	254.479000
9.818671	0.596494	0.626176	254.979000
9.840010	0.610031	0.627345	255.479000
9.859973	0.623032	0.628699	255.979000
9.879347	0.635641	0.630067	256.479000
9.899735	0.647821	0.631489	256.979000
9.918173	0.659209	0.632914	257.479000
9.939423	0.670201	0.634262	257.979000
9.959968	0.680654	0.635559	258.479000
9.979684	0.690515	0.636828	258.979000
9.998692	0.700062	0.638160	259.480000
10.018163	0.709213	0.639606	259.979000
10.037362	0.717694	0.640852	260.480000
10.057905	0.725447	0.642107	260.979000
10.077227	0.732203	0.643454	261.480000
10.096706	0.738494	0.644856	261.979000
10.116583	0.744491	0.646276	262.479000
10.133285	0.750089	0.647593	262.979000
10.153963	0.755083	0.648827	263.479000
10.174512	0.759316	0.650222	263.979000
10.193645	0.763289	0.651635	264.479000
10.213745	0.766740	0.653014	264.979000
10.234879	0.769655	0.654502	265.479000
10.255661	0.772294	0.655877	265.979000
10.276903	0.774224	0.657328	266.479000
10.295917	0.775427	0.658687	266.979000
10.314792	0.776067	0.659955	267.479000
10.334292	0.776248	0.661078	267.979000
10.352326	0.776211	0.662203	268.479000
10.372922	0.775814	0.663672	268.980000
10.394920	0.774734	0.665295	269.479000
10.410703	0.773221	0.666799	269.979000
10.430060	0.771416	0.668410	270.479000
10.452371	0.768996	0.669964	270.979000
10.468950	0.766306	0.671551	271.479000
10.487706	0.763449	0.673323	271.979000
10.507958	0.760006	0.675077	272.479000
10.528647	0.756105	0.676627	272.979000
10.547341	0.751802	0.677985	273.479000
10.566901	0.746950	0.679404	273.979000
10.585223	0.741669	0.680911	274.479000
10.605582	0.736120	0.682545	274.979000
10.626648	0.730759	0.684180	275.479000
10.645709	0.725222	0.685745	275.979000
10.666214	0.719111	0.687226	276.479000
10.690375	0.712660	0.688610	276.979000
10.709189	0.705784	0.690083	277.479000
10.730444	0.698770	0.691420	277.979000
10.749245	0.691776	0.693060	278.479000
10.765167	0.684494	0.694854	278.980000
10.782856	0.676855	0.696783	279.479000
10.805001	0.669226	0.698553	279.979000
10.826526	0.661660	0.700192	280.479000
10.844295	0.654219	0.701902	280.979000
10.867167	0.646876	0.703528	281.480000
10.889257	0.639158	0.705103	281.979000
10.907735	0.631003	0.706685	282.479000
10.926336	0.622665	0.708330	282.979000
10.945632	0.613844	0.709992	283.479000
10.966220	0.605007	0.711761	283.979000
10.986155	0.596051	0.713583	284.479000
11.018555	0.586968	0.715425	284.979000
11.038623	0.577816	0.717173	285.479000
11.049894	0.568706	0.719048	285.979000
11.064996	0.559379	0.720941	286.479000
11.085414	0.549703	0.722961	286.979000
11.109025	0.539536	0.724858	287.479000
11.131382	0.529103	0.726625	287.980000
11.149187	0.518817	0.728186	288.479000
11.169702	0.508208	0.729704	288.979000
11.187181	0.497472	0.731257	289.479000
11.207468	0.486657	0.732923	289.979000
11.226337	0.475439	0.734692	290.479000
11.246290	0.464412	0.736313	290.979000
11.265654	0.453309	0.737932	291.479000
11.284120	0.441903	0.739571	291.979000
11.304138	0.430403	0.740865	292.479000
11.326217	0.418703	0.742180	292.979000
11.343131	0.406642	0.743563	293.479000
11.364303	0.394123	0.744823	293.979000
11.383322	0.381404	0.745911	294.479000
11.403418	0.369012	0.746976	294.979000
11.424318	0.357092	0.747867	295.479000
11.444613	0.345007	0.748713	295.979000
11.465717	0.333533	0.749473	296.479000
11.485704	0.322068	0.750258	296.979000
11.502039	0.311231	0.750951	297.479000
11.523184	0.301455	0.751511	297.979000
11.543338	0.293089	0.752022	298.479000
11.562593	0.285921	0.752625	298.979000
11.581048	0.280181	0.753176	299.479000
11.600307	0.276173	0.753632	299.979000
11.618478	0.273762	0.754148	300.479000
11.637852	0.273210	0.754647	300.979000
11.659870	0.274514	0.755037	301.479000
11.678304	0.277642	0.755327	301.979000
11.697193	0.282655	0.755720	302.480000
11.717154	0.289232	0.756109	302.979000
11.736461	0.297582	0.756610	303.479000
11.756203	0.307587	0.757365	303.979000
11.773977	0.319458	0.758132	304.479000
11.794705	0.332586	0.758797	304.979000
11.812501	0.346985	0.759464	305.479000
11.833875	0.362462	0.760117	305.979000
11.852581	0.378916	0.760638	306.479000
11.870533	0.396378	0.761049	306.979000
11.890082	0.414624	0.761630	307.479000
11.911249	0.433340	0.762346	307.979000
11.931443	0.452507	0.763126	308.479000
11.950638	0.472054	0.764094	308.979000
11.969749	0.492117	0.765097	309.479000
11.990561	0.512557	0.766145	309.979000
12.011132	0.533262	0.766967	310.479000
12.031636	0.553824	0.767956	310.979000
12.052712	0.574193	0.768868	311.479000
12.071245	0.594590	0.769914	311.979000
12.092567	0.614650	0.771024	312.479000
12.112072	0.634388	0.772304	312.979000
12.132887	0.653847	0.773355	313.479000
12.152503	0.673391	0.774290	313.979000
12.174336	0.692770	0.775266	314.479000
12.194314	0.711886	0.776350	314.979000
12.213559	0.730699	0.777561	315.479000
12.232631	0.749033	0.778783	315.979000
12.252175	0.766806	0.779929	316.479000
12.272188	0.783723	0.781284	316.979000
12.292364	0.800001	0.782513	317.479000
12.312727	0.816152	0.783658	317.979000
12.333471	0.831781	0.784779	318.479000
12.353150	0.847407	0.785970	318.979000
12.374123	0.862648	0.787293	319.479000
12.395732	0.877296	0.788645	319.980000
12.416243	0.891527	0.789924	320.479000
12.437294	0.905475	0.791147	320.980000
12.457855	0.919245	0.792193	321.480000
12.476908	0.932789	0.793352	321.979000
12.497637	0.945790	0.794602	322.479000
12.516487	0.958495	0.795866	322.979000
12.534570	0.970615	0.797152	323.480000
12.553749	0.982396	0.798502	323.979000
12.575011	0.993815	0.799966	324.480000
12.596066	1.004864	0.801563	324.979000
12.615778	1.015674	0.802857	325.479000
12.636109	1.026017	0.804002	325.979000
12.654390	1.036023	0.805326	326.479000
12.673654	1.045713	0.806653	326.979000
12.693822	1.055064	0.808023	327.479000
12.713331	1.064376	0.809473	327.980000
12.732479	1.073126	0.810967	328.479000
12.753305	1.081380	0.812280	328.979000
12.773845	1.089226	0.813575	329.479000
12.796711	1.096983	0.814982	329.980000
12.816596	1.104464	0.816276	330.479000
12.836953	1.111539	0.817673	330.980000
12.855919	1.118240	0.818978	331.479000
12.876316	1.124304	0.820338	331.979000
12.896558	1.130203	0.821615	332.480000
12.918284	1.136206	0.822838	332.979000
12.939423	1.142278	0.824124	333.480000
12.961039	1.148132	0.825220	333.979000
12.982309	1.153716	0.826512	334.479000
13.004038	1.158992	0.827826	334.979000
13.025209	1.164031	0.829303	335.480000
13.044687	1.168303	0.830799	335.979000
13.066124	1.172484	0.832267	336.479000
13.088062	1.176384	0.833592	336.979000
13.109823	1.180372	0.835054	337.479000
13.130058	1.184066	0.836619	337.979000
13.150538	1.187113	0.838164	338.479000
13.173345	1.189840	0.839718	338.979000
13.195440	1.192282	0.841117	339.479000
13.216228	1.194350	0.842512	339.979000
13.236232	1.196527	0.844071	340.479000
13.255914	1.198793	0.845818	340.980000
13.276267	1.200441	0.847466	341.479000
13.297073	1.201712	0.849199	341.979000
13.315951	1.202535	0.850915	342.480000
13.335722	1.202848	0.852458	342.979000
13.355626	1.203047	0.853806	343.479000
13.376221	1.203152	0.855206	343.979000
13.395472	1.203389	0.856693	344.479000
13.414634	1.203755	0.858132	344.979000
13.434338	1.203612	0.859622	345.479000
13.455081	1.202540	0.860959	345.979000
13.476523	1.201152	0.862325	346.480000
13.497882	1.199832	0.863802	346.979000
13.518893	1.198661	0.865232	347.479000
13.539645	1.197220	0.866746	347.980000
13.559842	1.195563	0.868236	348.479000
13.579823	1.193796	0.869819	348.979000
13.601076	1.191453	0.871196	349.479000
13.621539	1.188789	0.872705	349.979000
13.640984	1.185780	0.874311	350.479000
13.661274	1.182179	0.875968	350.980000
13.682793	1.178087	0.877702	351.479000
13.703739	1.173818	0.879473	351.980000
13.722665	1.169340	0.881101	352.480000
13.743248	1.164750	0.882783	352.979000
13.762880	1.160070	0.884550	353.479000
13.783726	1.155435	0.886245	353.979000
13.803445	1.150545	0.887764	354.479000
13.823243	1.145230	0.889368	354.979000
13.844047	1.139564	0.890715	355.479000
13.864500	1.133643	0.892192	355.979000
13.885333	1.127594	0.893822	356.479000
13.904360	1.120889	0.895346	356.979000
13.922576	1.113836	0.896977	357.480000
13.942761	1.106514	0.898737	357.979000
13.962223	1.099372	0.900274	358.479000
13.984054	1.091951	0.901870	358.980000
14.004419	1.084174	0.903396	359.479000
14.024266	1.076121	0.905035	359.980000
14.045775	1.068075	0.906878	360.479000
14.066494	1.060250	0.908808	360.979000
14.087293	1.052089	0.910604	361.479000
14.107898	1.043577	0.912312	361.979000
14.126486	1.034675	0.913965	362.479000
14.146536	1.025960	0.915779	362.979000
14.167618	1.017059	0.917721	363.480000
14.186930	1.007684	0.919484	363.979000
14.207249	0.997953	0.921087	364.480000
14.226314	0.987972	0.922530	364.979000
14.246346	0.977967	0.924080	365.479000
14.267637	0.968227	0.925871	365.979000
14.288135	0.958392	0.927717	366.479000
14.311272	0.948926	0.929528	366.979000
14.332862	0.939794	0.931433	367.480000
14.354510	0.930626	0.933232	367.979000
14.375635	0.921606	0.935102	368.479000
14.396302	0.912621	0.936890	368.979000
14.417079	0.903331	0.938849	369.479000
14.438653	0.893485	0.940648	369.980000
14.461487	0.883582	0.942537	370.479000
14.482669	0.873629	0.944505	370.980000
14.502648	0.863626	0.946319	371.479000
14.522415	0.853628	0.948262	371.980000
14.542988	0.843476	0.950147	372.479000
14.565343	0.833471	0.951957	372.979000
14.586661	0.823339	0.953924	373.480000
14.608167	0.813323	0.955876	373.979000
14.628724	0.802844	0.957872	374.480000
14.650029	0.791576	0.959841	374.979000
14.668641	0.779750	0.961772	375.479000
14.689265	0.768174	0.963696	375.979000
14.709174	0.756964	0.965718	376.479000
14.729851	0.745172	0.967909	376.980000
14.750184	0.733416	0.969816	377.479000
14.770776	0.721648	0.971496	377.980000
14.789643	0.709379	0.973216	378.479000
14.810976	0.697050	0.975074	378.979000
14.831097	0.684598	0.977172	379.479000
14.851727	0.671852	0.979156	379.979000
14.871913	0.658865	0.980964	380.479000
14.890655	0.645551	0.982676	380.980000
14.911320	0.631678	0.984369	381.479000
14.928779	0.617449	0.986127	381.980000
14.949915	0.603230	0.988026	382.481000
14.969025	0.588625	0.989850	382.980000
14.990219	0.574031	0.991406	383.479000
15.007823	0.558831	0.992787	383.979000
15.026798	0.543038	0.994133	384.479000
15.049126	0.526810	0.995568	384.979000
15.069184	0.510164	0.996984	385.479000
15.086721	0.493047	0.998338	385.979000
15.107330	0.475502	0.999578	386.480000
15.127915	0.457738	1.000718	386.979000
15.148243	0.439643	1.001813	387.479000
15.170005	0.421349	1.002718	387.979000
15.189238	0.402710	1.003407	388.479000
15.208417	0.383843	1.004063	388.979000
15.228164	0.365664	1.004636	389.479000
15.249199	0.348089	1.005259	389.980000
15.267488	0.330764	1.005839	390.479000
15.289108	0.314325	1.006119	390.979000
15.309111	0.299103	1.006373	391.479000
15.329900	0.285145	1.006456	391.979000
15.350351	0.272778	1.006540	392.479000
15.371634	0.262163	1.006738	392.980000
15.389153	0.253349	1.006853	393.480000
15.407136	0.246539	1.006958	393.979000
15.428408	0.241835	1.006919	394.480000
15.448577	0.238958	1.006912	394.979000
15.467232	0.237667	1.006987	395.479000
15.487512	0.237881	1.006856	395.979000
15.507805	0.239731	1.006745	396.479000
15.528218	0.243368	1.006785	396.979000
15.549136	0.248719	1.006967	397.479000
15.569831	0.255611	1.007236	397.980000
15.589315	0.263339	1.007357	398.480000
15.608483	0.272696	1.007410	398.980000
15.628278	0.283652	1.007336	399.479000
15.650534	0.295966	1.007537	399.980000
15.670574	0.309906	1.007963	400.479000
15.690346	0.325396	1.008451	400.979000
15.710602	0.342348	1.008872	401.479000
15.731799	0.360715	1.009372	401.980000
15.753865	0.379976	1.009896	402.479000
15.772803	0.400720	1.010281	402.979000
15.795649	0.422857	1.010692	403.479000
15.817539	0.445976	1.011238	403.979000
15.839314	0.470355	1.011696	404.479000
15.856738	0.495935	1.012067	404.979000
15.878448	0.522063	1.012598	405.479000
15.898537	0.548244	1.013218	405.979000
15.920258	0.574661	1.013840	406.479000
15.944640	0.601512	1.014484	406.979000
15.961884	0.628564	1.015230	407.479000
15.979922	0.655627	1.016029	407.979000
15.999160	0.682785	1.016902	408.480000
16.019233	0.709328	1.018017	408.979000
16.037806	0.735298	1.019229	409.479000
16.060249	0.761008	1.020197	409.979000
16.075985	0.786168	1.021149	410.479000
16.097419	0.810620	1.022164	410.979000
16.114980	0.834271	1.023166	411.479000
16.132892	0.857416	1.024240	411.979000
16.153882	0.879666	1.025195	412.479000
16.175955	0.900968	1.026109	412.979000
16.195405	0.921919	1.027147	413.480000
16.216315	0.942553	1.028200	413.979000
16.235686	0.963342	1.029337	414.480000
16.259010	0.984101	1.030483	414.979000
16.280969	1.004460	1.031572	415.479000
16.299252	1.024495	1.032669	415.979000
16.320460	1.044092	1.033787	416.480000
16.341594	1.063583	1.035066	416.979000
16.359995	1.083087	1.036234	417.479000
16.379953	1.102252	1.037503	417.979000
16.402106	1.121462	1.038624	418.479000
16.419463	1.140056	1.039764	418.980000
16.439997	1.157877	1.041023	419.479000
16.458376	1.175003	1.042209	419.980000
16.475703	1.191479	1.043432	420.479000
16.494702	1.207652	1.044900	420.980000
16.516697	1.223299	1.046439	421.479000
16.535483	1.238614	1.047658	421.979000
16.552048	1.253474	1.048853	422.479000
16.572488	1.268202	1.050038	422.979000
16.592535	1.282796	1.051297	423.479000
16.608862	1.296858	1.052680	423.979000
16.628065	1.310396	1.053989	424.479000
16.647241	1.323780	1.055234	424.979000
16.665732	1.337064	1.056340	425.479000
16.685014	1.349697	1.057533	425.979000
16.704660	1.362104	1.058716	426.479000
16.724304	1.374605	1.060014	426.979000
16.743765	1.386873	1.061336	427.479000
16.765137	1.398379	1.062473	427.979000
16.784985	1.409977	1.063596	428.479000
16.804759	1.421588	1.064969	428.979000
16.823974	1.432843	1.066330	429.479000
16.842901	1.443685	1.067619	429.979000
16.862135	1.454869	1.068812	430.479000
16.880830	1.465992	1.070048	430.979000
16.901689	1.476312	1.071330	431.479000
16.920694	1.486209	1.072559	431.979000
16.939661	1.495977	1.073774	432.479000
16.959363	1.505779	1.075146	432.979000
16.977811	1.515321	1.076434	433.479000
16.997302	1.524769	1.077658	433.979000
17.017547	1.533894	1.078838	434.479000
17.038364	1.542770	1.080181	434.979000
17.057207	1.551449	1.081485	435.479000
17.077676	1.560343	1.082810	435.979000
17.098077	1.569013	1.084321	436.479000
17.119571	1.577262	1.085606	436.979000
17.138160	1.585464	1.086792	437.480000
17.157441	1.593222	1.088133	437.979000
17.178058	1.600832	1.089531	438.480000
17.197975	1.608779	1.091088	438.979000
17.217492	1.616842	1.092597	439.479000
17.235941	1.624231	1.094073	439.979000
17.254733	1.631262	1.095522	440.479000
17.273306	1.638195	1.096952	440.979000
17.294409	1.644985	1.098228	441.479000
17.312283	1.651778	1.099284	441.979000
17.331772	1.658461	1.100406	442.479000
17.350397	1.665297	1.101698	442.979000
17.371780	1.671949	1.102947	443.479000
17.393219	1.678305	1.104178	443.979000
17.412873	1.684455	1.105434	444.479000
17.431518	1.690188	1.106718	444.979000
17.450830	1.695828	1.108037	445.480000
17.472131	1.701551	1.109364	445.979000
17.493251	1.707432	1.110576	446.480000
17.515155	1.713214	1.111907	446.979000
17.535065	1.718267	1.113193	447.479000
17.556454	1.723037	1.114446	447.979000
17.576855	1.728019	1.115922	448.480000
17.597844	1.733149	1.117354	448.979000
17.617062	1.738226	1.118752	449.479000
17.636157	1.743098	1.120155	449.979000
17.655769	1.748277	1.121564	450.479000
17.675937	1.753429	1.123063	450.979000
17.696152	1.758315	1.124249	451.479000
17.716379	1.763068	1.125407	451.979000
17.736099	1.767921	1.126837	452.479000
17.754312	1.772258	1.128194	452.979000
17.774739	1.776606	1.129637	453.479000
17.795995	1.781063	1.130990	453.979000
17.815736	1.785087	1.132296	454.480000
17.835140	1.788889	1.133511	454.979000
17.854579	1.792527	1.134700	455.479000
17.877057	1.796364	1.136075	455.979000
17.896423	1.799686	1.137513	456.479000
17.915863	1.803333	1.139150	456.979000
17.934270	1.807032	1.140758	457.480000
17.954042	1.810391	1.142309	457.979000
17.974048	1.813531	1.143693	458.479000
17.993567	1.816910	1.144945	458.979000
18.012871	1.820567	1.146124	459.479000
18.031944	1.824021	1.147117	459.979000
18.051468	1.827369	1.148210	460.479000
18.071069	1.830680	1.149443	460.979000
18.091580	1.833918	1.150692	461.479000
18.111429	1.836956	1.152047	461.979000
18.130087	1.839437	1.153350	462.479000
18.149170	1.841868	1.154734	462.979000
18.168942	1.844169	1.156003	463.479000
18.189430	1.846572	1.157114	463.980000
18.207927	1.849353	1.158448	464.479000
18.227202	1.852230	1.159937	464.979000
18.247868	1.855088	1.161496	465.479000
18.268613	1.857701	1.162981	465.979000
18.287744	1.860490	1.164477	466.479000
18.305994	1.863134	1.166029	466.979000
18.324561	1.865545	1.167508	467.479000
18.345372	1.868189	1.168928	467.979000
18.364286	1.870801	1.170094	468.479000
18.383242	1.873056	1.171182	468.979000
18.403121	1.875203	1.172353	469.479000
18.423169	1.877363	1.173531	469.979000
18.441501	1.879045	1.174804	470.479000
18.461887	1.881224	1.176144	470.979000
18.480489	1.883852	1.177360	471.479000
18.500914	1.885901	1.178577	471.979000
18.519684	1.887670	1.179886	472.479000
18.539645	1.889235	1.181047	472.980000
18.562208	1.890599	1.182316	473.479000
18.581787	1.892519	1.183609	473.979000
18.600915	1.894912	1.184869	474.479000
18.619844	1.897202	1.186218	474.979000
18.639853	1.899573	1.187619	475.479000
18.660005	1.901751	1.189068	475.979000
18.678927	1.903712	1.190314	476.480000
18.698044	1.905913	1.191643	476.979000
18.716403	1.908000	1.192907	477.479000
18.735907	1.909981	1.194259	477.979000
18.757153	1.911549	1.195607	478.479000
18.776541	1.913054	1.196940	478.979000
18.795169	1.914294	1.198339	479.479000
18.813032	1.915802	1.199766	479.979000
18.831973	1.917370	1.200972	480.479000
18.851828	1.918858	1.202068	480.979000
18.871716	1.920520	1.203273	481.479000
18.891669	1.922105	1.204667	481.979000
18.911444	1.923789	1.206088	482.479000
18.931671	1.925742	1.207503	482.979000
18.952577	1.927593	1.208886	483.479000
18.972775	1.929223	1.210161	483.979000
18.992977	1.930991	1.211433	484.479000
19.013293	1.932585	1.212712	484.979000
19.033508	1.933989	1.213991	485.479000
19.054214	1.935171	1.215267	485.979000
19.074866	1.936273	1.216631	486.479000
19.094193	1.937764	1.217952	486.979000
19.114276	1.939012	1.219288	487.479000
19.135068	1.940448	1.220863	487.979000
19.157625	1.941738	1.222501	488.479000
19.178150	1.943015	1.224016	488.979000
19.198706	1.944293	1.225405	489.480000
19.218621	1.945496	1.226737	489.979000
19.239668	1.946807	1.228012	490.479000
19.261359	1.947928	1.229357	490.979000
19.281860	1.948748	1.230858	491.479000
19.301163	1.949769	1.232287	491.979000
19.320496	1.950991	1.233811	492.479000
19.342203	1.951730	1.235435	492.979000
19.362119	1.951891	1.236775	493.479000
19.382071	1.951758	1.238037	493.979000
19.401136	1.951873	1.239275	494.479000
19.421923	1.952295	1.240558	494.979000
19.443657	1.952938	1.241981	495.480000
19.465032	1.953454	1.243578	495.979000
19.486881	1.953649	1.245134	496.480000
19.508022	1.954056	1.246670	496.979000
19.528976	1.954355	1.248212	497.479000
19.550456	1.954142	1.249665	497.979000
19.571045	1.953708	1.251160	498.480000
19.590115	1.953417	1.252649	498.979000
19.610797	1.953024	1.254206	499.479000
19.632420	1.952314	1.255806	499.979000
19.653104	1.951390	1.257429	500.479000
19.674542	1.950356	1.258843	500.979000
19.694589	1.949760	1.260237	501.479000
19.714352	1.949349	1.261663	501.980000
19.735277	1.948418	1.263234	502.479000
19.755813	1.947066	1.264794	502.980000
19.774457	1.945830	1.266208	503.479000
19.793735	1.944747	1.267632	503.979000
19.814315	1.943570	1.269013	504.479000
19.836334	1.942515	1.270492	504.979000
19.857217	1.940932	1.271937	505.479000
19.876424	1.939410	1.273379	505.980000
19.895284	1.937968	1.274923	506.479000
19.916028	1.936034	1.276628	506.979000
19.936287	1.933767	1.278166	507.480000
19.955603	1.931186	1.279728	507.979000
19.974670	1.928402	1.281337	508.479000
19.993962	1.925708	1.282820	508.979000
20.013650	1.922920	1.284285	509.479000
20.034347	1.920455	1.285833	509.979000
20.054983	1.918010	1.287518	510.479000
20.073422	1.915369	1.289318	510.979000
20.093121	1.912299	1.290971	511.479000
20.112833	1.909171	1.292413	511.979000
20.134238	1.906138	1.293965	512.479000
20.153854	1.903040	1.295494	512.980000
20.171874	1.899881	1.296902	513.479000
20.188918	1.896431	1.298298	513.979000
20.209021	1.892738	1.299756	514.479000
20.228045	1.888790	1.301413	514.979000
20.249168	1.884599	1.303053	515.479000
20.268146	1.880185	1.304623	515.979000
20.287379	1.875422	1.306240	516.480000
20.306326	1.870437	1.308019	516.979000
20.324670	1.865528	1.309699	517.479000
20.343745	1.860485	1.311277	517.979000
20.362981	1.855388	1.312769	518.479000
20.381517	1.850050	1.314242	518.979000
20.399562	1.844673	1.315685	519.480000
20.419220	1.839903	1.317172	519.979000
20.438520	1.835077	1.318646	520.480000
20.457582	1.829943	1.320162	520.979000
20.476486	1.824192	1.321716	521.479000
20.496506	1.818136	1.323239	521.979000
20.517197	1.812079	1.324697	522.479000
20.536403	1.806108	1.326184	522.979000
20.555486	1.800065	1.327824	523.479000
20.572955	1.793635	1.329474	523.980000
20.592597	1.786932	1.331197	524.479000
20.613130	1.780266	1.332886	524.979000
20.631718	1.773047	1.334697	525.479000
20.651807	1.765560	1.336482	525.980000
20.670079	1.758009	1.338166	526.479000
20.691409	1.750406	1.339857	526.979000
20.711246	1.742784	1.341654	527.479000
20.729867	1.735096	1.343383	527.979000
20.749078	1.727177	1.345145	528.480000
20.767931	1.719347	1.346747	528.979000
20.786961	1.711095	1.348410	529.479000
20.806457	1.702818	1.349993	529.979000
20.822869	1.694492	1.351670	530.479000
20.846024	1.686286	1.353289	530.979000
20.863812	1.677938	1.354844	531.479000
20.878717	1.669444	1.356485	531.979000
20.896385	1.660971	1.358341	532.479000
20.918227	1.652283	1.360154	532.979000
20.938614	1.643760	1.361772	533.479000
20.959860	1.634931	1.363402	533.979000
20.979805	1.626047	1.365074	534.479000
20.997667	1.617069	1.366854	534.979000
21.018740	1.607905	1.368477	535.479000
21.035873	1.598687	1.370135	535.980000
21.054693	1.589939	1.371878	536.479000
21.074041	1.581209	1.373700	536.980000
21.094836	1.572431	1.375593	537.480000
21.114255	1.563772	1.377497	537.979000
21.134755	1.555191	1.379277	538.479000
21.155195	1.546408	1.381219	538.979000
21.172712	1.537600	1.383172	539.479000
21.193429	1.529017	1.384853	539.979000
21.211485	1.520386	1.386617	540.479000
21.230067	1.511872	1.388333	540.979000
21.247542	1.503585	1.390039	541.480000
21.268997	1.495289	1.391873	541.979000
21.290796	1.486967	1.393688	542.479000
21.310040	1.478380	1.395636	542.979000
21.330458	1.469752	1.397580	543.479000
21.345445	1.461706	1.399433	543.979000
21.361113	1.453743	1.401412	544.479000
21.379088	1.445512	1.403475	544.979000
21.400640	1.437299	1.405375	545.479000
21.418353	1.429622	1.407150	545.980000
21.435556	1.422198	1.408731	546.479000
21.455932	1.415212	1.410349	546.979000
21.474048	1.408056	1.412108	547.479000
21.494547	1.400365	1.414092	547.979000
21.514063	1.392800	1.416129	548.479000
21.531065	1.384832	1.418122	548.979000
21.549892	1.376559	1.420137	549.479000
21.570539	1.368173	1.422190	549.979000
21.593845	1.360005	1.424092	550.479000
21.609986	1.351576	1.426065	550.979000
21.627046	1.343073	1.428055	551.479000
21.647026	1.334179	1.429919	551.979000
21.664057	1.324689	1.431832	552.479000
21.683588	1.315172	1.433891	552.979000
21.703093	1.305185	1.435915	553.479000
21.722296	1.295368	1.438003	553.979000
21.739256	1.285439	1.440076	554.479000
21.758251	1.275217	1.442008	554.980000
21.777016	1.264719	1.443726	555.479000
21.796926	1.254003	1.445570	555.979000
21.816818	1.242973	1.447534	556.479000
21.835105	1.231491	1.449528	556.980000
21.854632	1.219756	1.451622	557.479000
21.874200	1.207594	1.453605	557.979000
21.893926	1.195166	1.455512	558.479000
21.916368	1.182673	1.457446	558.979000
21.936178	1.169571	1.459501	559.479000
21.951459	1.155899	1.461524	559.979000
21.970625	1.141935	1.463479	560.479000
21.989774	1.127908	1.465363	560.979000
22.008714	1.113220	1.467148	561.479000
22.027774	1.098008	1.469099	561.979000
22.048174	1.082674	1.471154	562.479000
22.068622	1.067378	1.473282	562.979000
22.089429	1.051702	1.475487	563.479000
22.109113	1.035823	1.477455	563.979000
22.127825	1.019400	1.479405	564.479000
22.148043	1.002145	1.481443	564.980000
22.167709	0.984189	1.483539	565.479000
22.188500	0.966077	1.485482	565.980000
22.208414	0.947616	1.487235	566.479000
22.229778	0.928291	1.489063	566.979000
22.249548	0.908549	1.490892	567.479000
22.269667	0.888680	1.492661	567.979000
22.291268	0.868194	1.494337	568.479000
22.312926	0.847114	1.495643	568.979000
22.331803	0.825537	1.497046	569.479000
22.351459	0.803546	1.498458	569.979000
22.372059	0.781341	1.499878	570.480000
22.392791	0.758577	1.501150	570.979000
22.411713	0.735116	1.502265	571.479000
22.431139	0.711403	1.503234	571.979000
22.452484	0.687469	1.504164	572.480000
22.474478	0.663330	1.504995	572.980000
22.495033	0.639371	1.505904	573.479000
22.514442	0.615346	1.506769	573.980000
22.533476	0.591643	1.507515	574.479000
22.553252	0.567751	1.508177	574.979000
22.575226	0.543941	1.508575	575.479000
22.594121	0.520179	1.508962	575.980000
22.613161	0.496708	1.509243	576.479000
22.631839	0.473888	1.509615	576.979000
22.651813	0.452015	1.509746	577.479000
22.673460	0.430944	1.509698	577.979000
22.694267	0.410515	1.509803	578.479000
22.714854	0.391130	1.510054	578.979000
22.735172	0.372814	1.510271	579.479000
22.756579	0.355372	1.510592	579.979000
22.776881	0.339015	1.510837	580.479000
22.795839	0.323780	1.510966	580.979000
22.815953	0.310046	1.511217	581.479000
22.835686	0.297790	1.511448	581.979000
22.856218	0.286938	1.511574	582.480000
22.876980	0.277567	1.511577	582.980000
22.896013	0.269100	1.511656	583.479000
22.914000	0.261801	1.511598	583.979000
22.933630	0.255642	1.511426	584.479000
22.953944	0.250416	1.511277	584.979000
22.973345	0.246159	1.511419	585.479000
22.992248	0.243185	1.511601	585.979000
23.011896	0.241337	1.511733	586.479000
23.033160	0.240797	1.511781	586.980000
23.054173	0.241192	1.511811	587.479000
23.074963	0.241866	1.511876	587.979000
23.093929	0.243816	1.511879	588.480000
23.113766	0.246899	1.511696	588.979000
23.134291	0.250034	1.511489	589.479000
23.155408	0.253561	1.511396	589.979000
23.175839	0.257475	1.511405	590.480000
23.194852	0.262410	1.511498	590.979000
23.214240	0.268017	1.511511	591.479000
23.234436	0.274142	1.511464	591.979000
23.254309	0.280593	1.511400	592.480000
23.275012	0.287660	1.511287	592.979000
23.295323	0.295467	1.511141	593.479000
23.316272	0.303953	1.511070	593.980000
23.336122	0.312746	1.511065	594.479000
23.356676	0.321876	1.511087	594.979000
23.377315	0.331437	1.511019	595.479000
23.396773	0.341417	1.510952	595.979000
23.415462	0.351938	1.510855	596.479000
23.435813	0.363044	1.510708	596.979000
23.454948	0.374951	1.510499	597.479000
23.474997	0.387000	1.510329	597.980000
23.495038	0.399151	1.510314	598.480000
23.515153	0.411668	1.510318	598.979000
23.535960	0.425152	1.510145	599.480000
23.556209	0.439286	1.510024	599.979000
23.576075	0.454147	1.509998	600.479000
23.595647	0.469910	1.509964	600.979000
23.614922	0.486565	1.509891	601.479000
23.636837	0.504409	1.509777	601.979000
23.657769	0.523285	1.509777	602.479000
23.678002	0.542793	1.509866	602.979000
23.699564	0.563292	1.509956	603.479000
23.719743	0.584902	1.509926	603.980000
23.740037	0.607248	1.509956	604.479000
23.759901	0.631038	1.509996	604.979000
23.779031	0.656011	1.510099	605.479000
23.799380	0.681961	1.510296	605.979000
23.819994	0.708842	1.510425	606.479000
23.839638	0.735929	1.510649	606.980000
23.859521	0.763766	1.510972	607.479000
23.878873	0.792472	1.511300	607.980000
23.899128	0.821575	1.511613	608.479000
23.919018	0.850957	1.512038	608.979000
23.939860	0.880867	1.512526	609.479000
23.959993	0.911350	1.513171	609.979000
23.979769	0.942122	1.513821	610.479000
24.000137	0.972892	1.514389	610.979000
24.020949	1.003922	1.514878	611.479000
24.042277	1.035604	1.515494	611.979000
24.062229	1.067577	1.516127	612.479000
24.081696	1.099124	1.516894	612.979000
24.101369	1.130421	1.517760	613.479000
24.122521	1.161538	1.518577	613.979000
24.142865	1.192796	1.519356	614.479000
24.163420	1.223898	1.520189	614.980000
24.182870	1.254381	1.521044	615.479000
24.203026	1.285236	1.521911	615.980000
24.223303	1.315818	1.522766	616.479000
24.244084	1.346156	1.523621	616.979000
24.262355	1.376089	1.524530	617.479000
24.281258	1.405360	1.525455	617.979000
24.302470	1.434294	1.526395	618.479000
24.322911	1.462632	1.527462	618.980000
24.343200	1.490610	1.528411	619.479000
24.362828	1.517791	1.529542	619.979000
24.380551	1.544475	1.530597	620.479000
24.398700	1.571068	1.531695	620.979000
24.421722	1.597020	1.532859	621.479000
24.442788	1.622134	1.534110	621.979000
24.462684	1.646655	1.535391	622.479000
24.481577	1.671136	1.536476	622.979000
24.501634	1.695079	1.537463	623.479000
24.520731	1.718622	1.538542	623.980000
24.539763	1.741671	1.539703	624.479000
24.560114	1.764232	1.540860	624.979000
24.578870	1.786318	1.542097	625.479000
24.598002	1.807775	1.543264	625.979000
24.618968	1.828824	1.544212	626.479000
24.638607	1.849643	1.545227	626.980000
24.657952	1.869833	1.546386	627.479000
24.676157	1.889652	1.547661	627.979000
24.693844	1.909424	1.548955	628.479000
24.712735	1.928967	1.550151	628.979000
24.732595	1.947725	1.551321	629.479000
24.752441	1.965951	1.552643	629.979000
24.771808	1.984003	1.554124	630.480000
24.791479	2.001293	1.555677	630.979000
24.812259	2.017850	1.557015	631.479000
24.831533	2.034069	1.558102	631.979000
24.850744	2.050086	1.559367	632.479000
24.870280	2.066055	1.560651	632.979000
24.890733	2.081709	1.562012	633.480000
24.910642	2.097275	1.563437	633.980000
24.929708	2.112570	1.564752	634.479000
24.948126	2.127770	1.566006	634.979000
24.966828	2.142772	1.567116	635.479000
24.987257	2.157340	1.568182	635.979000
25.007614	2.171438	1.569298	636.479000
25.026630	2.185522	1.570545	636.980000
25.045580	2.198963	1.571894	637.479000
25.064721	2.212569	1.573092	637.979000
25.085672	2.226259	1.574273	638.479000
25.106546	2.239318	1.575634	638.979000
25.125015	2.251932	1.576976	639.479000
25.144423	2.264467	1.578331	639.979000
25.164652	2.276906	1.579822	640.479000
25.183732	2.288920	1.581349	640.979000
25.206042	2.301049	1.582780	641.479000
25.225793	2.312962	1.584016	641.979000
25.244116	2.324541	1.585432	642.479000
25.264159	2.335607	1.586879	642.979000
25.282663	2.346777	1.588340	643.480000
25.304766	2.357726	1.589757	643.979000
25.324906	2.368304	1.591076	644.480000
25.342935	2.378686	1.592383	644.979000
25.362850	2.389575	1.593654	645.479000
25.380771	2.400354	1.594827	645.980000
25.400678	2.410532	1.596082	646.479000
25.420146	2.420587	1.597394	646.979000
25.439710	2.430283	1.598894	647.479000
25.457983	2.440001	1.600238	647.979000
25.478656	2.449513	1.601560	648.479000
25.497537	2.458627	1.602955	648.979000
25.515591	2.468187	1.604403	649.479000
25.535535	2.477256	1.605818	649.979000
25.555654	2.486148	1.606993	650.479000
25.574856	2.494749	1.608212	650.979000
25.594496	2.503085	1.609414	651.479000
25.613593	2.511246	1.610918	651.979000
25.634051	2.519483	1.612281	652.480000
25.653998	2.527845	1.613552	652.979000
25.672567	2.535974	1.614873	653.480000
25.693129	2.543956	1.616206	653.979000
25.713358	2.551723	1.617671	654.479000
25.732754	2.559529	1.619177	654.979000
25.753671	2.566837	1.620661	655.479000
25.773776	2.574242	1.622071	655.979000
25.793191	2.581761	1.623406	656.479000
25.813508	2.589423	1.624678	656.979000
25.832073	2.597033	1.625771	657.479000
25.850269	2.604328	1.626886	657.980000
25.869059	2.611470	1.628315	658.479000
25.890317	2.618227	1.629734	658.979000
25.912466	2.624507	1.631200	659.479000
25.932477	2.630595	1.632636	659.979000
25.952084	2.637184	1.633938	660.479000
25.972725	2.644000	1.635274	660.979000
25.986545	2.650483	1.636656	661.480000
26.008219	2.656850	1.637925	661.979000
26.025866	2.662929	1.639210	662.479000
26.045222	2.669051	1.640744	662.979000
26.065121	2.675294	1.642103	663.479000
26.085473	2.681120	1.643302	663.979000
26.103809	2.686876	1.644491	664.479000
26.123196	2.692277	1.645792	664.979000
26.139480	2.697793	1.647128	665.479000
26.157646	2.703193	1.648551	665.979000
26.174517	2.708691	1.650024	666.479000
26.192893	2.714139	1.651350	666.979000
26.214627	2.719640	1.652582	667.479000
26.233038	2.724875	1.653813	667.980000
26.256871	2.729797	1.654973	668.479000
26.279178	2.734637	1.656157	668.979000
26.294705	2.739670	1.657426	669.479000
26.314340	2.744674	1.658919	669.979000
26.339350	2.749652	1.660642	670.479000
26.364619	2.754709	1.661996	670.979000
26.374959	2.759544	1.663374	671.479000
26.394097	2.763858	1.664753	671.979000
26.409171	2.768253	1.666029	672.479000
26.425476	2.772900	1.667449	672.979000
26.446326	2.777453	1.668908	673.479000
26.469270	2.782271	1.670333	673.979000
26.483495	2.787099	1.671614	674.480000
26.503082	2.791598	1.672987	674.979000
26.524145	2.795928	1.674451	675.479000
26.544945	2.799864	1.675981	675.979000
26.564466	2.803713	1.677214	676.479000
26.583405	2.807069	1.678444	676.979000
26.604849	2.810445	1.679878	677.479000
26.619920	2.813955	1.681076	677.980000
26.641953	2.817448	1.682392	678.479000
26.658182	2.821403	1.683773	678.979000
26.680206	2.825576	1.684898	679.479000
26.696381	2.829526	1.686167	679.980000
26.715451	2.833092	1.687520	680.479000
26.732503	2.836098	1.689027	680.979000
26.755306	2.838841	1.690666	681.479000
26.775900	2.842312	1.692003	681.979000
26.793825	2.845892	1.693322	682.480000
26.812355	2.849359	1.694517	682.979000
26.835847	2.852610	1.695630	683.479000
26.856031	2.855519	1.696756	683.979000
26.872385	2.858753	1.698025	684.479000
26.891254	2.862183	1.699393	684.979000
26.909772	2.865342	1.700865	685.479000
26.931305	2.868229	1.702386	685.979000
26.949398	2.871323	1.703769	686.479000
26.970320	2.874079	1.705120	686.979000
26.990177	2.876500	1.706531	687.479000
27.010104	2.878926	1.707751	687.980000
27.028831	2.881187	1.709151	688.479000
27.049828	2.883258	1.710561	688.980000
27.069746	2.885713	1.712086	689.479000
27.089325	2.888336	1.713657	689.979000
27.109155	2.891120	1.715096	690.479000
27.131471	2.893538	1.716622	690.979000
27.151127	2.895926	1.718012	691.480000
27.171765	2.898864	1.719371	691.979000
27.192472	2.901950	1.720763	692.480000
27.211313	2.904513	1.722125	692.979000
27.231097	2.906751	1.723440	693.480000
27.251136	2.908851	1.724880	693.979000
27.272012	2.911324	1.726256	694.480000
27.292326	2.913324	1.727664	694.979000
27.312629	2.915296	1.729168	695.480000
27.333324	2.917627	1.730781	695.979000
27.354301	2.920061	1.732341	696.479000
27.373822	2.922097	1.733674	696.979000
27.393550	2.923951	1.735151	697.479000
27.412932	2.925692	1.736720	697.980000
27.431789	2.927507	1.738166	698.479000
27.452151	2.929207	1.739427	698.980000
27.472358	2.930708	1.740822	699.479000
27.492728	2.932117	1.742397	699.979000
27.514166	2.933700	1.744009	700.479000
27.535152	2.935257	1.745552	700.980000
27.553252	2.936955	1.747132	701.479000
27.572708	2.938361	1.748397	701.979000
27.593433	2.939881	1.749708	702.479000
27.613649	2.941699	1.750961	702.979000
27.633148	2.943522	1.752265	703.479000
27.653964	2.945063	1.753662	703.979000
27.672467	2.946170	1.755215	704.479000
27.691858	2.947252	1.756728	704.979000
27.711740	2.948614	1.758263	705.479000
27.733213	2.949732	1.759531	705.979000
27.752359	2.950665	1.760917	706.479000
27.772081	2.951411	1.762276	706.979000
27.790868	2.952243	1.763568	707.479000
27.811458	2.953370	1.764955	707.980000
27.832854	2.954480	1.766453	708.479000
27.853391	2.955236	1.767850	708.980000
27.872812	2.955840	1.769341	709.479000
27.891710	2.956360	1.770838	709.979000
27.911478	2.957152	1.772015	710.479000
27.931613	2.958008	1.773200	710.979000
27.951690	2.958992	1.774551	711.479000
27.970020	2.960001	1.776067	711.979000
27.988765	2.960796	1.777723	712.479000
28.009879	2.961473	1.779271	712.979000
28.029532	2.961989	1.780849	713.479000
28.049512	2.962362	1.782224	713.979000
28.069226	2.962454	1.783553	714.479000
28.088391	2.962621	1.784846	714.979000
28.107654	2.962806	1.786219	715.479000
28.127108	2.963281	1.787656	715.979000
28.147085	2.963694	1.788965	716.479000
28.166231	2.964096	1.790381	716.979000
28.185491	2.964443	1.791710	717.479000
28.205533	2.964764	1.793112	717.979000
28.225156	2.964875	1.794634	718.479000
28.244626	2.965355	1.796144	718.979000
28.264175	2.965925	1.797799	719.479000
28.284206	2.966284	1.799438	719.980000
28.305335	2.966519	1.800840	720.479000
28.327414	2.966875	1.802166	720.979000
28.347135	2.967156	1.803623	721.479000
28.366874	2.967162	1.805019	721.979000
28.386619	2.967488	1.806440	722.479000
28.406987	2.967416	1.808009	722.979000
28.427005	2.967332	1.809528	723.480000
28.447655	2.967253	1.810933	723.979000
28.465921	2.967079	1.812257	724.479000
28.485333	2.966736	1.813676	724.979000
28.506552	2.966844	1.815114	725.479000
28.526448	2.967189	1.816814	725.979000
28.545566	2.967388	1.818204	726.479000
28.564971	2.967200	1.819520	726.979000
28.585055	2.966526	1.820980	727.479000
28.605902	2.965944	1.822290	727.980000
28.626366	2.965777	1.823575	728.479000
28.647266	2.965601	1.825036	728.979000
28.667398	2.965036	1.826601	729.479000
28.687399	2.964534	1.828109	729.979000
28.707071	2.964164	1.829496	730.479000
28.729565	2.963818	1.830754	730.979000
28.750112	2.963541	1.832096	731.479000
28.769345	2.963271	1.833395	731.979000
28.789444	2.962579	1.834823	732.479000
28.812286	2.961793	1.836356	732.979000
28.830879	2.961048	1.837941	733.480000
28.850997	2.960375	1.839525	733.979000
28.870691	2.959615	1.840829	734.479000
28.889158	2.958745	1.842034	734.979000
28.910394	2.957871	1.843221	735.480000
28.931034	2.956930	1.844533	735.979000
28.951328	2.955890	1.845904	736.479000
28.970894	2.955197	1.847289	736.980000
28.990652	2.954581	1.848691	737.479000
29.011230	2.953652	1.850077	737.979000
29.031345	2.952767	1.851543	738.479000
29.051544	2.951897	1.853030	738.979000
29.070630	2.951161	1.854507	739.479000
29.090384	2.950605	1.856020	739.979000
29.112256	2.949730	1.857407	740.479000
29.132928	2.948670	1.858915	740.979000
29.151790	2.947574	1.860341	741.479000
29.171411	2.946145	1.861691	741.979000
29.190734	2.945110	1.863177	742.479000
29.211973	2.944392	1.864598	742.979000
29.231171	2.943315	1.866024	743.479000
29.249881	2.941927	1.867512	743.979000
29.269498	2.940473	1.868960	744.479000
29.289722	2.939379	1.870115	744.979000
29.309427	2.938309	1.871494	745.479000
29.330551	2.937334	1.872896	745.979000
29.348987	2.936191	1.874224	746.479000
29.368495	2.934761	1.875533	746.979000
29.389041	2.933038	1.876759	747.480000
29.410065	2.931142	1.878142	747.979000
29.429587	2.929157	1.879576	748.479000
29.449451	2.927600	1.880837	748.979000
29.469229	2.926167	1.882181	749.479000
29.489925	2.924969	1.883549	749.980000
29.508934	2.923654	1.885114	750.479000
29.529472	2.922395	1.886523	750.980000
29.549755	2.921238	1.887610	751.479000
29.570179	2.919819	1.888919	751.980000
29.591784	2.918231	1.890247	752.479000
29.612593	2.916772	1.891566	752.979000
29.632495	2.914968	1.892963	753.479000
29.652011	2.913570	1.894485	753.979000
29.673254	2.912033	1.895881	754.479000
29.693311	2.909713	1.896950	754.979000
29.712918	2.907401	1.898097	755.479000
29.733447	2.905526	1.899379	755.979000
29.752200	2.903976	1.900628	756.479000
29.772247	2.902211	1.902080	756.979000
29.793342	2.900420	1.903545	757.479000
29.813943	2.898801	1.904848	757.979000
29.834213	2.897100	1.906118	758.479000
29.854227	2.895165	1.907568	758.979000
29.874368	2.893011	1.908917	759.479000
29.895587	2.891061	1.910251	759.979000
29.916810	2.889252	1.911619	760.479000
29.936076	2.887513	1.912937	760.979000
29.956238	2.885502	1.914443	761.479000
29.977253	2.883513	1.915926	761.980000
29.997252	2.881556	1.917273	762.479000
30.017615	2.879414	1.918436	762.979000
30.037103	2.877560	1.919627	763.479000
30.056351	2.875832	1.920802	763.979000
30.075208	2.874125	1.921954	764.479000
30.095968	2.872295	1.923191	764.979000
30.115571	2.870266	1.924540	765.480000
30.135325	2.868188	1.925796	765.979000
30.155471	2.866213	1.927056	766.479000
30.175980	2.864291	1.928089	766.979000
30.195744	2.862309	1.929089	767.479000
30.215976	2.860598	1.930136	767.979000
30.235004	2.859055	1.931259	768.479000
30.254807	2.857443	1.932462	768.980000
30.274260	2.855787	1.933602	769.479000
30.296874	2.854231	1.934853	769.980000
30.315357	2.852680	1.936098	770.479000
30.335009	2.850819	1.937220	770.979000
30.354625	2.848789	1.938402	771.479000
30.376911	2.847513	1.939574	771.980000
30.395033	2.846386	1.940912	772.479000
30.414150	2.845034	1.942331	772.979000
30.431830	2.843859	1.943506	773.479000
30.452707	2.842854	1.944672	773.979000
30.473502	2.841654	1.945752	774.479000
30.494144	2.840325	1.946977	774.979000
30.511901	2.838989	1.948118	775.480000
30.531652	2.837728	1.949282	775.979000
30.552529	2.836235	1.950450	776.479000
30.571384	2.834629	1.951496	776.979000
30.591752	2.833124	1.952474	777.479000
30.613287	2.831748	1.953519	777.979000
30.632220	2.830685	1.954494	778.479000
30.651184	2.829852	1.955639	778.979000
30.674222	2.829094	1.956772	779.479000
30.692630	2.828694	1.957851	779.979000
30.712093	2.828415	1.958948	780.479000
30.731758	2.828012	1.960080	780.980000
30.751765	2.827477	1.961246	781.479000
30.776996	2.827281	1.962314	781.980000
30.798462	2.826861	1.963491	782.479000
30.818012	2.826324	1.964580	782.979000
30.832751	2.825758	1.965632	783.479000
30.855569	2.825623	1.966606	783.979000
30.874405	2.825779	1.967612	784.479000
30.895281	2.825870	1.968714	784.979000
30.913868	2.825756	1.969793	785.479000
30.925674	2.825773	1.970857	785.979000
30.944742	2.826216	1.971974	786.479000
30.966953	2.826662	1.973133	786.979000
30.985723	2.827220	1.974185	787.479000
31.006677	2.827854	1.975195	787.979000
31.024442	2.828561	1.976251	788.479000
31.044510	2.829254	1.977099	788.979000
31.066681	2.830086	1.978068	789.479000
31.088104	2.830911	1.979002	789.979000
31.107065	2.832133	1.979903	790.479000
31.135977	2.833654	1.980793	790.980000
31.158965	2.835029	1.981779	791.479000
31.168798	2.836376	1.982762	791.979000
31.183965	2.837791	1.983671	792.479000
31.203316	2.839379	1.984603	792.979000
31.221201	2.840770	1.985578	793.479000
31.242313	2.842319	1.986639	793.979000
31.258417	2.844150	1.987758	794.479000
31.282891	2.846256	1.988848	794.979000
31.307300	2.848467	1.989965	795.479000
31.322601	2.851082	1.991065	795.979000
31.345507	2.853548	1.992212	796.479000
31.365328	2.855804	1.993248	796.979000
31.384554	2.858123	1.994285	797.480000
31.405284	2.860580	1.995326	797.979000
31.425652	2.863053	1.996331	798.480000
31.450967	2.865661	1.997374	798.979000
31.465506	2.868892	1.998444	799.479000
31.484589	2.872585	1.999466	799.980000
31.503461	2.875941	2.000454	800.479000
31.523706	2.879069	2.001412	800.980000
31.545571	2.882198	2.002531	801.479000
31.570081	2.885340	2.003626	801.979000
31.586528	2.888829	2.004687	802.479000
31.601747	2.893093	2.005803	802.979000
31.623539	2.897246	2.006777	803.480000
31.643080	2.901399	2.007665	803.979000
31.660828	2.905801	2.008665	804.479000
31.679336	2.909944	2.009695	804.979000
31.699819	2.914126	2.010736	805.480000
31.721357	2.918752	2.011954	805.979000
31.739120	2.923511	2.013164	806.479000
31.758726	2.927889	2.014153	806.979000
31.778588	2.932423	2.015232	807.479000
31.800579	2.936733	2.016321	807.979000
31.822092	2.941263	2.017337	808.479000
31.846290	2.946088	2.018547	808.980000
31.866192	2.951272	2.019739	809.479000
31.885141	2.956552	2.020869	809.979000
31.901463	2.961915	2.021990	810.479000
31.925062	2.967284	2.023120	810.980000
31.947429	2.972757	2.024152	811.479000
31.964797	2.978086	2.025324	811.979000
31.983474	2.983551	2.026518	812.479000
32.007884	2.988790	2.027645	812.979000
32.025599	2.993789	2.028739	813.479000
32.043287	2.999186	2.030079	813.980000
32.062280	3.004913	2.031355	814.480000
32.083081	3.010665	2.032611	814.979000
32.102425	3.016332	2.033763	815.479000
32.122775	3.022394	2.034716	815.979000
32.143665	3.028534	2.035745	816.479000
32.166488	3.034419	2.036858	816.979000
32.185367	3.040191	2.038168	817.480000
32.203552	3.045872	2.039572	817.979000
32.224044	3.051613	2.040885	818.479000
32.247198	3.057304	2.042210	818.979000
32.268578	3.063062	2.043464	819.479000
32.288936	3.069187	2.044651	819.980000
32.307353	3.075077	2.045868	820.479000
32.326460	3.081053	2.047012	820.979000
32.347335	3.087049	2.048063	821.479000
32.367379	3.092880	2.049291	821.979000
32.387810	3.098632	2.050495	822.479000
32.405971	3.104504	2.051684	822.979000
32.426740	3.110309	2.052873	823.479000
32.446022	3.116067	2.054159	823.980000
32.464762	3.121378	2.055529	824.479000
32.484987	3.127040	2.056935	824.979000
32.502362	3.132803	2.058295	825.480000
32.524113	3.138955	2.059633	825.979000
32.544256	3.144863	2.060933	826.480000
32.564922	3.150923	2.061930	826.979000
32.583094	3.156969	2.062971	827.479000
32.603500	3.162412	2.064102	827.979000
32.623340	3.167969	2.065408	828.479000
32.643519	3.173345	2.066638	828.979000
32.662952	3.178410	2.067824	829.480000
32.682490	3.183641	2.068974	829.979000
32.703379	3.188751	2.070346	830.479000
32.723618	3.193712	2.071722	830.979000
32.743528	3.199031	2.073158	831.479000
32.763188	3.204603	2.074655	831.980000
32.782277	3.210035	2.076141	832.479000
32.803512	3.215920	2.077508	832.979000
32.824569	3.221610	2.078575	833.479000
32.845135	3.226697	2.079617	833.980000
32.865382	3.231650	2.080677	834.479000
32.885021	3.236923	2.081814	834.979000
32.904217	3.241889	2.083073	835.480000
32.924503	3.246983	2.084393	835.979000
32.945402	3.251785	2.085704	836.480000
32.965707	3.256923	2.087153	836.979000
32.985418	3.262285	2.088617	837.479000
33.005929	3.267314	2.089961	837.979000
33.025928	3.272020	2.091099	838.479000
33.046024	3.276496	2.092255	838.979000
33.064895	3.281325	2.093574	839.480000
33.084669	3.285766	2.094888	839.979000
33.102402	3.290067	2.096317	840.479000
33.122993	3.294107	2.097727	840.979000
33.142747	3.298387	2.099064	841.479000
33.161792	3.302907	2.100392	841.979000
33.181888	3.307001	2.101715	842.479000
33.201561	3.311131	2.103030	842.979000
33.220947	3.315167	2.104447	843.479000
33.240408	3.319254	2.105866	843.979000
33.260968	3.323383	2.107210	844.479000
33.280519	3.327490	2.108553	844.979000
33.301940	3.331895	2.109831	845.479000
33.322730	3.335741	2.111025	845.979000
33.342381	3.339625	2.112283	846.479000
33.363174	3.343601	2.113606	846.979000
33.382539	3.347099	2.114956	847.479000
33.402624	3.350456	2.116345	847.979000
33.422098	3.354011	2.117754	848.480000
33.441848	3.357668	2.119126	848.979000
33.461942	3.361745	2.120348	849.479000
33.482347	3.365706	2.121620	849.979000
33.503285	3.369570	2.122944	850.479000
33.523271	3.373159	2.124094	850.980000
33.542648	3.376680	2.125282	851.479000
33.562468	3.380425	2.126606	851.979000
33.582757	3.383798	2.127979	852.479000
33.603493	3.387280	2.129480	852.979000
33.624289	3.390626	2.130911	853.479000
33.645980	3.393677	2.132328	853.979000
33.666283	3.396683	2.133609	854.479000
33.686606	3.399715	2.134935	854.980000
33.704953	3.402610	2.136196	855.479000
33.725664	3.405502	2.137564	855.979000
33.745820	3.408643	2.139105	856.479000
33.765768	3.411859	2.140584	856.979000
33.787226	3.414794	2.142002	857.479000
33.808067	3.417650	2.143292	857.979000
33.828927	3.420475	2.144501	858.479000
33.849563	3.423338	2.145937	858.979000
33.869527	3.425877	2.147505	859.479000
33.891060	3.428518	2.149070	859.979000
33.911441	3.430966	2.150673	860.479000
33.931144	3.433162	2.152245	860.980000
33.952641	3.435350	2.153757	861.479000
33.974635	3.437986	2.155107	861.979000
33.994295	3.440335	2.156527	862.479000
34.015928	3.442672	2.158004	862.979000
34.036218	3.445091	2.159266	863.479000
34.056412	3.447438	2.160620	863.980000
34.076687	3.449713	2.162112	864.479000
34.097896	3.451692	2.163520	864.980000
34.119204	3.453719	2.164991	865.480000
34.138541	3.455684	2.166408	865.979000
34.159404	3.457758	2.168032	866.480000
34.180340	3.459643	2.169532	866.979000
34.200389	3.461539	2.171097	867.479000
34.219773	3.463332	2.172654	867.979000
34.239321	3.465010	2.174075	868.480000
34.258954	3.466561	2.175383	868.979000
34.280472	3.468071	2.176671	869.479000
34.300694	3.469555	2.177997	869.980000
34.321337	3.471349	2.179295	870.479000
34.340194	3.473305	2.180900	870.979000
34.360735	3.475038	2.182505	871.479000
34.382532	3.476386	2.183864	871.979000
34.402163	3.477347	2.185158	872.479000
34.422680	3.478388	2.186563	872.979000
34.441301	3.479445	2.187957	873.479000
34.462894	3.480398	2.189318	873.979000
34.484561	3.481658	2.190781	874.479000
34.504869	3.483068	2.192144	874.979000
34.525577	3.484467	2.193473	875.480000
34.546082	3.485827	2.194813	875.979000
34.568573	3.487255	2.196272	876.479000
34.590638	3.488403	2.197646	876.979000
34.610859	3.489413	2.199105	877.479000
34.630143	3.490484	2.200523	877.979000
34.649771	3.491501	2.202008	878.479000
34.669872	3.493020	2.203530	878.979000
34.690313	3.494686	2.204912	879.479000
34.710990	3.495636	2.206274	879.979000
34.731362	3.495903	2.207655	880.480000
34.752239	3.496621	2.208984	880.979000
34.773221	3.497643	2.210453	881.479000
34.794245	3.498733	2.211874	881.979000
34.814343	3.499551	2.213437	882.479000
34.834378	3.500096	2.214890	882.980000
34.854445	3.500728	2.216390	883.479000
34.875763	3.501206	2.217814	883.979000
34.895959	3.501582	2.218907	884.479000
34.916414	3.502084	2.220119	884.979000
34.937196	3.502801	2.221584	885.480000
34.956941	3.503319	2.223089	885.980000
34.978281	3.503878	2.224576	886.479000
34.998286	3.504324	2.226232	886.979000
35.018644	3.504399	2.227812	887.479000
35.039699	3.504640	2.229343	887.979000
35.061956	3.504800	2.230736	888.479000
35.081450	3.504582	2.232165	888.979000
35.101760	3.504238	2.233692	889.479000
35.121190	3.503697	2.235158	889.979000
35.140380	3.503270	2.236621	890.480000
35.161104	3.502877	2.237814	890.979000
35.181847	3.502630	2.239062	891.479000
35.201592	3.502477	2.240466	891.980000
35.221501	3.501982	2.241781	892.479000
35.240407	3.501579	2.243254	892.979000
35.260111	3.501030	2.244612	893.479000
35.279582	3.500240	2.245980	893.979000
35.299838	3.499498	2.247338	894.479000
35.319332	3.498440	2.248690	894.979000
35.342187	3.497509	2.249957	895.479000
35.362939	3.496609	2.251267	895.979000
35.384272	3.495978	2.252760	896.480000
35.405305	3.495321	2.254361	896.979000
35.426413	3.494208	2.255925	897.479000
35.444739	3.492247	2.257431	897.979000
35.465182	3.490252	2.258896	898.479000
35.484224	3.488486	2.260354	898.979000
35.503592	3.486979	2.261814	899.479000
35.527184	3.485125	2.263316	899.979000
35.547587	3.483320	2.264686	900.480000
35.571891	3.481667	2.266178	900.979000
35.590541	3.479985	2.267661	901.479000
35.608099	3.478207	2.269152	901.980000
35.629570	3.476081	2.270431	902.479000
35.650629	3.473748	2.271733	902.980000
35.667739	3.471753	2.273112	903.479000
35.688983	3.470174	2.274660	903.979000
35.713885	3.468708	2.276198	904.479000
35.732541	3.467250	2.277643	904.979000
35.748150	3.465239	2.278904	905.479000
35.767677	3.462980	2.280142	905.980000
35.785667	3.460694	2.281518	906.480000
35.806495	3.458380	2.283079	906.979000
35.824682	3.456054	2.284660	907.479000
35.848647	3.454002	2.286116	907.979000
35.874419	3.452362	2.287660	908.479000
35.889188	3.450739	2.289120	908.979000
35.912964	3.449045	2.290523	909.479000
35.935328	3.447162	2.291998	909.979000
35.952969	3.444601	2.293364	910.479000
35.967239	3.442066	2.294807	910.979000
35.986844	3.439584	2.296239	911.479000
36.003563	3.437275	2.297629	911.980000
36.024702	3.435019	2.298994	912.479000
36.040525	3.431727	2.300265	912.979000
36.063432	3.427831	2.301644	913.479000
36.081998	3.424267	2.302966	913.980000
36.100201	3.421200	2.304182	914.479000
36.119926	3.418095	2.305459	914.979000
36.142218	3.415242	2.306919	915.479000
36.165121	3.412495	2.308514	915.979000
36.187677	3.409971	2.309921	916.479000
36.218121	3.407820	2.311300	916.979000
36.226937	3.405964	2.312674	917.480000
36.246533	3.403876	2.314015	917.979000
36.278486	3.401628	2.315580	918.479000
36.293716	3.399311	2.317163	918.979000
36.308000	3.396707	2.318581	919.479000
36.336700	3.394090	2.320108	919.979000
36.355725	3.391734	2.321443	920.479000
36.377310	3.388980	2.322767	920.979000
36.399387	3.386023	2.324304	921.479000
36.420144	3.383311	2.325766	921.979000
36.440523	3.380835	2.327210	922.479000
36.459695	3.378214	2.328770	922.979000
36.478944	3.375200	2.330192	923.479000
36.500017	3.372058	2.331624	923.979000
36.520945	3.369296	2.333143	924.479000
36.539407	3.366667	2.334669	924.979000
36.557557	3.363806	2.336139	925.479000
36.571739	3.361262	2.337717	925.980000
36.593392	3.359069	2.339111	926.479000
36.606482	3.356348	2.340470	926.979000
36.625349	3.353237	2.341735	927.479000
36.645441	3.350051	2.342993	927.979000
36.668001	3.346976	2.344158	928.479000
36.682825	3.343948	2.345476	928.979000
36.705668	3.341008	2.346890	929.479000
36.728122	3.337553	2.348366	929.979000
36.742343	3.333925	2.349875	930.479000
36.762766	3.330187	2.351315	930.979000
36.786295	3.326636	2.352596	931.479000
36.805643	3.323612	2.354015	931.979000
36.823895	3.320327	2.355333	932.479000
36.844784	3.316843	2.356593	932.979000
36.865017	3.313408	2.357821	933.479000
36.885395	3.309861	2.359259	933.979000
36.906526	3.306767	2.360945	934.479000
36.924809	3.304235	2.362643	934.979000
36.948622	3.301879	2.364272	935.479000
36.967179	3.299007	2.365697	935.980000
36.985118	3.295714	2.367101	936.479000
37.005356	3.291942	2.368407	936.979000
37.028443	3.287918	2.369802	937.479000
37.047340	3.283602	2.371155	937.979000
37.064824	3.279287	2.372359	938.479000
37.090160	3.275094	2.373687	938.979000
37.104000	3.270891	2.375103	939.479000
37.127560	3.267121	2.376811	939.979000
37.146313	3.263621	2.378356	940.479000
37.160785	3.259809	2.379882	940.979000
37.182806	3.256321	2.381171	941.479000
37.202454	3.253114	2.382456	941.979000
37.224354	3.250664	2.383864	942.479000
37.240570	3.247872	2.385324	942.979000
37.264037	3.244851	2.386861	943.479000
37.286743	3.241214	2.388222	943.979000
37.306493	3.236930	2.389702	944.479000
37.326086	3.232741	2.391049	944.979000
37.346832	3.228787	2.392613	945.479000
37.365079	3.224972	2.394111	945.979000
37.387952	3.221190	2.395439	946.479000
37.405770	3.218166	2.396853	946.980000
37.426275	3.215422	2.398318	947.479000
37.447023	3.211823	2.399634	947.979000
37.467018	3.207911	2.400972	948.480000
37.486229	3.204522	2.402477	948.979000
37.506924	3.201792	2.404008	949.479000
37.527417	3.198815	2.405349	949.979000
37.546677	3.195470	2.406562	950.479000
37.565616	3.191941	2.407879	950.979000
37.586683	3.187593	2.409437	951.480000
37.607806	3.182938	2.410876	951.979000
37.628787	3.178510	2.412451	952.479000
37.648743	3.174458	2.414085	952.979000
37.667428	3.170751	2.415710	953.479000
37.688733	3.167885	2.417230	953.979000
37.710388	3.165041	2.418625	954.479000
37.732434	3.161854	2.420092	954.979000
37.751010	3.158376	2.421751	955.479000
37.772389	3.153898	2.423320	955.980000
37.791749	3.148910	2.424833	956.479000
37.816690	3.143769	2.426359	956.979000
37.833919	3.138290	2.427835	957.479000
37.853454	3.133111	2.429285	957.979000
37.874324	3.128675	2.430725	958.479000
37.896001	3.125329	2.432264	958.979000
37.917551	3.122285	2.433797	959.479000
37.937272	3.119060	2.435185	959.979000
37.958270	3.115740	2.436532	960.479000
37.977902	3.112432	2.437868	960.979000
38.001186	3.109066	2.439429	961.480000
38.022490	3.105008	2.441102	961.979000
38.039993	3.100654	2.442725	962.479000
38.062609	3.096476	2.444404	962.979000
38.082537	3.092248	2.446069	963.479000
38.102894	3.088255	2.447512	963.980000
38.122571	3.084729	2.448845	964.479000
38.141856	3.080820	2.450431	964.980000
38.160623	3.076481	2.452038	965.479000
38.182404	3.071033	2.453571	965.979000
38.202985	3.064879	2.455066	966.479000
38.223624	3.058925	2.456505	966.979000
38.243932	3.053736	2.457871	967.479000
38.265052	3.048991	2.459411	967.979000
38.285975	3.044624	2.460929	968.479000
38.307493	3.040439	2.462481	968.979000
38.329228	3.036355	2.463969	969.479000
38.350885	3.032441	2.465343	969.979000
38.374060	3.028538	2.466714	970.479000
38.395181	3.024223	2.468178	970.979000
38.416679	3.019345	2.469686	971.480000
38.438033	3.013955	2.471277	971.979000
38.458798	3.007820	2.472842	972.479000
38.480069	3.001086	2.474434	972.979000
38.501780	2.994477	2.476129	973.479000
38.524296	2.987629	2.477820	973.979000
38.545650	2.980879	2.479287	974.479000
38.565643	2.975045	2.480717	974.979000
38.586148	2.969994	2.482196	975.479000
38.606769	2.964245	2.483677	975.979000
38.627426	2.957894	2.485255	976.479000
38.647760	2.951460	2.486804	976.979000
38.670009	2.945430	2.488288	977.479000
38.691106	2.938855	2.489848	977.979000
38.711648	2.931892	2.491681	978.479000
38.731719	2.924890	2.493316	978.979000
38.752634	2.918409	2.494713	979.479000
38.773529	2.911610	2.496273	979.979000
38.794049	2.904334	2.497906	980.479000
38.814819	2.897177	2.499640	980.979000
38.834852	2.890171	2.501320	981.480000
38.856272	2.884175	2.503062	981.979000
38.877486	2.878445	2.504807	982.479000
38.899519	2.872291	2.506443	982.979000
38.920063	2.865771	2.507824	983.479000
38.942096	2.858649	2.509410	983.979000
38.962466	2.850881	2.510932	984.479000
38.983743	2.843554	2.512340	984.979000
39.004175	2.836874	2.513954	985.479000
39.024636	2.830225	2.515620	985.980000
39.046284	2.823310	2.517444	986.479000
39.067566	2.816583	2.519079	986.979000
39.087439	2.809591	2.520548	987.479000
39.108666	2.802338	2.522057	987.980000
39.128130	2.794893	2.523694	988.479000
39.149125	2.787540	2.525272	988.979000
39.170953	2.781561	2.526708	989.479000
39.192270	2.775799	2.528260	989.979000
39.213818	2.769134	2.529881	990.479000
39.233707	2.762221	2.531454	990.979000
39.255591	2.755977	2.533030	991.479000
39.278136	2.750117	2.534695	991.979000
39.301104	2.743359	2.536515	992.479000
39.321569	2.736962	2.538389	992.979000
39.342640	2.731081	2.540198	993.479000
39.361993	2.725277	2.542033	993.979000
39.383885	2.719183	2.543639	994.479000
39.404150	2.712965	2.545186	994.979000
39.424265	2.706650	2.546689	995.479000
39.446268	2.699052	2.548090	995.979000
39.468338	2.691075	2.549741	996.479000
39.488765	2.683068	2.551380	996.980000
39.508191	2.675248	2.553010	997.479000
39.529349	2.668019	2.554471	997.979000
39.549462	2.661335	2.556087	998.479000
39.572137	2.654647	2.557843	998.979000
39.593771	2.648220	2.559645	999.479000
39.615030	2.642001	2.561300	999.979000
39.635437	2.635322	2.562869	1000.479000
39.657333	2.628525	2.564281	1000.979000
39.677725	2.622563	2.565601	1001.479000
39.698518	2.617229	2.567115	1001.979000
39.719582	2.611613	2.568914	1002.479000
39.740332	2.605088	2.570675	1002.979000
39.761950	2.597639	2.572310	1003.479000
39.781509	2.590288	2.574021	1003.979000
39.801315	2.583178	2.575787	1004.479000
39.821930	2.575896	2.577548	1004.979000
39.843399	2.568388	2.579362	1005.479000
39.863364	2.560884	2.581132	1005.979000
39.882745	2.553434	2.582809	1006.479000
39.903037	2.546963	2.584477	1006.980000
39.924115	2.541474	2.586190	1007.479000
39.945894	2.534510	2.587788	1007.980000
39.967911	2.526332	2.589468	1008.479000
39.988381	2.518890	2.591097	1008.980000
40.008735	2.511750	2.592774	1009.479000
40.017508	2.504539	2.594564	1009.979000
40.017111	2.496650	2.596070	1010.479000
40.016251	2.488882	2.597567	1010.979000
40.015640	2.481103	2.598850	1011.479000
40.015311	2.473939	2.600033	1011.979000
40.015036	2.467200	2.601079	1012.479000
40.014835	2.461279	2.601934	1012.979000
40.014554	2.456589	2.602796	1013.480000
40.014670	2.453145	2.603473	1013.979000
40.014853	2.451259	2.604124	1014.479000
40.014697	2.450484	2.604621	1014.979000
40.014490	2.449910	2.605057	1015.479000
40.014728	2.448392	2.605372	1015.979000
40.014829	2.447018	2.605528	1016.479000
40.014950	2.445353	2.605857	1016.980000
40.015000	2.443506	2.606132	1017.479000
40.015103	2.441662	2.606381	1017.979000
40.015134	2.440177	2.606452	1018.479000
40.015200	2.439325	2.606355	1018.979000
40.015408	2.438559	2.606272	1019.479000
40.015225	2.437810	2.606375	1019.979000
40.015207	2.437219	2.606428	1020.479000
40.015399	2.436678	2.606491	1020.979000
40.015663	2.436686	2.606537	1021.480000
40.015738	2.437655	2.606597	1021.979000
40.015493	2.438615	2.606612	1022.479000
40.015840	2.440137	2.606537	1022.979000
40.015942	2.441190	2.606549	1023.480000
40.015942	2.441561	2.606646	1023.979000
40.016013	2.441763	2.606708	1024.480000
40.016291	2.441283	2.606717	1024.979000
40.016492	2.440173	2.606604	1025.479000
40.016698	2.439926	2.606459	1025.980000
40.016516	2.439448	2.606307	1026.479000
40.016447	2.438544	2.606247	1026.979000
40.016429	2.438753	2.606285	1027.479000
40.016502	2.438312	2.606387	1027.979000
40.016597	2.437838	2.606612	1028.479000
40.016682	2.438072	2.606637	1028.979000
40.016680	2.438364	2.606585	1029.480000
40.016709	2.438422	2.606371	1029.979000
40.020642	2.438752	2.606320	1030.479000
40.012000	2.439449	2.606161	1030.979000
39.992606	2.440001	2.606115	1031.479000
39.974798	2.440541	2.606083	1031.979000
39.957964	2.441087	2.605783	1032.480000
39.940041	2.442167	2.605482	1032.979000
39.922821	2.444392	2.605201	1033.479000
39.905063	2.447484	2.604840	1033.979000
39.886453	2.451809	2.604240	1034.480000
39.870528	2.455959	2.603313	1034.979000
39.852509	2.460808	2.602423	1035.479000
39.833276	2.466818	2.601349	1035.979000
39.814913	2.473693	2.600434	1036.479000
39.796303	2.480232	2.599412	1036.979000
39.778447	2.487172	2.598180	1037.479000
39.760859	2.493417	2.596643	1037.979000
39.740834	2.499625	2.595285	1038.479000
39.725070	2.505909	2.593897	1038.979000
39.705955	2.511631	2.592539	1039.480000
39.688779	2.517780	2.591312	1039.980000
39.671173	2.524092	2.590040	1040.479000
39.654501	2.530795	2.588807	1040.979000
39.636115	2.537761	2.587554	1041.479000
39.622319	2.543790	2.586021	1041.979000
39.603850	2.549226	2.584493	1042.479000
39.585490	2.555414	2.582987	1042.979000
39.566391	2.562130	2.581714	1043.479000
39.554487	2.568262	2.580363	1043.979000
39.536592	2.573654	2.578995	1044.480000
39.518649	2.578532	2.577567	1044.980000
39.497473	2.583226	2.576078	1045.479000
39.475729	2.588865	2.574705	1045.979000
39.454420	2.594328	2.573440	1046.479000
39.433571	2.599481	2.572155	1046.979000
39.415013	2.605425	2.570687	1047.479000
39.399146	2.611284	2.569264	1047.980000
39.379101	2.616614	2.567812	1048.479000
39.358594	2.621647	2.566346	1048.979000
39.342048	2.627214	2.564836	1049.479000
39.323087	2.633384	2.563424	1049.979000
39.308829	2.639246	2.562040	1050.479000
39.286571	2.645173	2.560576	1050.979000
39.267882	2.651568	2.558897	1051.479000
39.245835	2.658349	2.557207	1051.979000
39.229377	2.664777	2.555637	1052.479000
39.211343	2.670693	2.554142	1052.979000
39.192822	2.676023	2.552825	1053.480000
39.172247	2.680966	2.551359	1053.979000
39.149329	2.686573	2.549962	1054.479000
39.131561	2.693648	2.548528	1054.979000
39.119449	2.700743	2.546926	1055.479000
39.097461	2.707194	2.545282	1055.979000
39.081834	2.713025	2.543780	1056.479000
39.068030	2.718696	2.542362	1056.979000
39.048674	2.724487	2.540919	1057.479000
39.028018	2.729742	2.539448	1057.980000
39.009195	2.735279	2.537885	1058.479000
38.990628	2.741112	2.536391	1058.979000
38.972180	2.746729	2.535037	1059.479000
38.952841	2.752074	2.533714	1059.979000
38.931995	2.757524	2.532377	1060.479000
38.914305	2.762916	2.531019	1060.979000
38.896989	2.768830	2.529621	1061.479000
38.876877	2.774922	2.528157	1061.979000
38.860986	2.781249	2.526818	1062.479000
38.839230	2.787634	2.525479	1062.979000
38.822077	2.794354	2.524197	1063.480000
38.804587	2.800887	2.522779	1063.979000
38.784699	2.807354	2.521344	1064.479000
38.765969	2.813502	2.519924	1064.979000
38.748272	2.819795	2.518469	1065.479000
38.730856	2.825793	2.517075	1065.979000
38.712308	2.832145	2.515728	1066.479000
38.693689	2.839065	2.514444	1066.979000
38.674514	2.845705	2.513121	1067.479000
38.654699	2.851207	2.511783	1067.980000
38.636339	2.856182	2.510452	1068.479000
38.619398	2.861694	2.509075	1068.979000
38.602278	2.867721	2.507761	1069.479000
38.585634	2.873997	2.506420	1069.979000
38.569327	2.880362	2.505065	1070.479000
38.551112	2.886465	2.503710	1070.979000
38.532302	2.892330	2.502315	1071.479000
38.511548	2.897966	2.500878	1071.979000
38.491891	2.903215	2.499444	1072.479000
38.473480	2.908719	2.497957	1072.979000
38.453923	2.914524	2.496534	1073.479000
38.434532	2.919946	2.495132	1073.979000
38.414239	2.924981	2.493735	1074.479000
38.394544	2.930100	2.492195	1074.979000
38.375858	2.935626	2.490795	1075.480000
38.356734	2.941938	2.489461	1075.979000
38.337364	2.947895	2.488101	1076.479000
38.315286	2.953199	2.486584	1076.979000
38.296677	2.958483	2.485154	1077.479000
38.280520	2.964143	2.483702	1077.980000
38.262235	2.969601	2.482195	1078.479000
38.242183	2.974929	2.480762	1078.979000
38.223245	2.980562	2.479516	1079.479000
38.205824	2.986274	2.478318	1079.979000
38.182822	2.992011	2.477065	1080.480000
38.167917	2.997455	2.475633	1080.980000
38.150641	3.002755	2.474077	1081.479000
38.132548	3.007988	2.472502	1081.979000
38.115245	3.013589	2.470998	1082.479000
38.096900	3.019392	2.469411	1082.979000
38.080605	3.024677	2.467880	1083.479000
38.059982	3.028116	2.466399	1083.979000
38.043907	3.029897	2.465051	1084.479000
38.025957	3.031485	2.463765	1084.979000
38.006247	3.033931	2.462615	1085.479000
37.983385	3.037715	2.461387	1085.979000
37.965422	3.042911	2.460063	1086.479000
37.947035	3.049239	2.458925	1086.979000
37.932177	3.055804	2.457812	1087.479000
37.914698	3.062297	2.456663	1087.980000
37.893652	3.067782	2.455444	1088.479000
37.874443	3.072227	2.454202	1088.979000
37.857493	3.076326	2.452965	1089.479000
37.840277	3.079881	2.451528	1089.980000
37.818691	3.083002	2.449924	1090.479000
37.800304	3.084731	2.448426	1090.979000
37.782515	3.086109	2.447047	1091.479000
37.764483	3.088843	2.445769	1091.979000
37.745531	3.092978	2.444442	1092.479000
37.723943	3.097853	2.442992	1092.979000
37.701733	3.102376	2.441587	1093.479000
37.686552	3.106919	2.440084	1093.979000
37.670524	3.111122	2.438646	1094.479000
37.653068	3.114430	2.437247	1094.979000
37.634259	3.123675	2.435900	1095.479000
37.615833	3.135712	2.434480	1095.979000
37.592888	3.148769	2.433055	1096.479000
37.575180	3.160117	2.431679	1096.980000
37.559196	3.164506	2.430330	1097.479000
37.542155	3.164983	2.428962	1097.979000
37.524506	3.163497	2.427618	1098.479000
37.505303	3.162019	2.426275	1098.979000
37.487371	3.161167	2.424894	1099.479000
37.468446	3.160679	2.423454	1099.979000
37.449803	3.160761	2.421978	1100.479000
37.430928	3.161515	2.420464	1100.979000
37.414322	3.163006	2.419171	1101.479000
37.393861	3.165558	2.418012	1101.979000
37.373661	3.168871	2.416758	1102.479000
37.353020	3.172692	2.415612	1102.979000
37.334897	3.176489	2.414313	1103.479000
37.316424	3.179420	2.413009	1103.979000
37.294180	3.181560	2.411645	1104.479000
37.275836	3.183826	2.410311	1104.979000
37.259530	3.186350	2.409089	1105.479000
37.241361	3.189130	2.407918	1105.979000
37.223192	3.192708	2.406599	1106.479000
37.203108	3.197256	2.405174	1106.979000
37.183434	3.202191	2.403790	1107.479000
37.167447	3.206930	2.402359	1107.979000
37.149005	3.211380	2.400723	1108.479000
37.127743	3.214811	2.399415	1108.979000
37.110546	3.217492	2.398236	1109.479000
37.086808	3.219720	2.397016	1109.979000
37.067310	3.221962	2.395622	1110.479000
37.048828	3.224617	2.394207	1110.979000
37.028727	3.227302	2.392694	1111.479000
37.008065	3.230588	2.391413	1111.979000
36.989760	3.234861	2.390147	1112.480000
36.969224	3.239423	2.388672	1112.979000
36.947835	3.244635	2.387192	1113.480000
36.928862	3.249719	2.385623	1113.979000
36.909205	3.253667	2.384068	1114.480000
36.889529	3.256581	2.382640	1114.979000
36.869975	3.260008	2.381199	1115.479000
36.851002	3.263854	2.379658	1115.979000
36.833330	3.267668	2.378209	1116.479000
36.815256	3.271364	2.377003	1116.980000
36.796184	3.274506	2.375702	1117.479000
36.776271	3.277210	2.374525	1117.980000
36.758738	3.280576	2.373253	1118.479000
36.743228	3.284476	2.371709	1118.979000
36.723893	3.288160	2.370199	1119.479000
36.702659	3.292045	2.368731	1119.979000
36.686827	3.295662	2.367355	1120.479000
36.667136	3.298966	2.366180	1120.979000
36.650391	3.301869	2.365074	1121.479000
36.635276	3.304591	2.363991	1121.979000
36.618298	3.307242	2.362589	1122.479000
36.597041	3.310558	2.361072	1122.979000
36.583467	3.314266	2.359547	1123.480000
36.567713	3.317969	2.358314	1123.979000
36.551637	3.321357	2.357240	1124.479000
36.533290	3.324790	2.356113	1124.979000
36.514831	3.328073	2.354865	1125.479000
36.495959	3.331362	2.353652	1125.979000
36.478655	3.334249	2.352427	1126.479000
36.459155	3.336866	2.351234	1126.979000
36.441817	3.339269	2.350018	1127.479000
36.422131	3.341943	2.348744	1127.980000
36.401257	3.344584	2.347357	1128.479000
36.382131	3.347198	2.345940	1128.979000
36.365419	3.350174	2.344573	1129.479000
36.344138	3.353050	2.343247	1129.980000
36.328982	3.356376	2.341838	1130.479000
36.312464	3.359827	2.340571	1130.979000
36.293028	3.362851	2.339381	1131.479000
36.271189	3.365440	2.338209	1131.980000
36.255823	3.367913	2.336915	1132.479000
36.240859	3.370371	2.335646	1132.979000
36.217408	3.373168	2.334371	1133.480000
36.198817	3.375765	2.333017	1133.979000
36.183052	3.378097	2.331687	1134.479000
36.162068	3.380365	2.330506	1134.979000
36.145834	3.382643	2.329268	1135.479000
36.128200	3.384680	2.327919	1135.979000
36.112929	3.386497	2.326610	1136.479000
36.095728	3.388402	2.325356	1136.979000
36.077853	3.390534	2.324193	1137.479000
36.062333	3.392598	2.322874	1137.980000
36.044891	3.394662	2.321599	1138.479000
36.025882	3.396893	2.320426	1138.980000
36.010491	3.399401	2.319236	1139.479000
35.995282	3.401328	2.318018	1139.979000
35.978557	3.402561	2.316612	1140.479000
35.962347	3.403523	2.315158	1140.979000
35.938627	3.404758	2.313872	1141.479000
35.919518	3.406466	2.312701	1141.980000
35.904236	3.408283	2.311529	1142.479000
35.881938	3.410128	2.310178	1142.979000
35.863107	3.411975	2.308819	1143.479000
35.845996	3.413317	2.307370	1143.979000
35.826792	3.414891	2.306042	1144.479000
35.810499	3.416417	2.304752	1144.979000
35.792994	3.418631	2.303528	1145.479000
35.775830	3.421224	2.302300	1145.979000
35.758699	3.423737	2.300943	1146.479000
35.741069	3.425894	2.299612	1146.979000
35.718759	3.427644	2.298535	1147.479000
35.699850	3.429118	2.297420	1147.979000
35.684473	3.430989	2.296182	1148.479000
35.666685	3.433416	2.294830	1148.979000
35.645213	3.435888	2.293430	1149.479000
35.628696	3.438676	2.292119	1149.979000
35.611451	3.440941	2.291019	1150.479000
35.590584	3.442959	2.290065	1150.979000
35.572419	3.445212	2.288928	1151.479000
35.552951	3.447399	2.287598	1151.980000
35.533179	3.449882	2.286186	1152.479000
35.515189	3.452403	2.284667	1152.979000
35.496978	3.454846	2.283092	1153.479000
35.478519	3.457166	2.281607	1153.979000
35.462862	3.459254	2.280318	1154.479000
35.443720	3.461215	2.278986	1154.979000
35.423098	3.462899	2.277657	1155.480000
35.403366	3.464724	2.276282	1155.979000
35.386211	3.466181	2.275021	1156.479000
35.364970	3.467643	2.273649	1156.979000
35.346448	3.469459	2.272267	1157.479000
35.326390	3.470967	2.270878	1157.979000
35.308321	3.472262	2.269632	1158.479000
35.291503	3.473717	2.268437	1158.980000
35.273059	3.475634	2.267320	1159.479000
35.256229	3.477774	2.266146	1159.979000
35.234355	3.479462	2.264935	1160.479000
35.218270	3.480363	2.263827	1160.979000
35.198150	3.481417	2.262645	1161.479000
35.179263	3.482597	2.261451	1161.980000
35.160840	3.483766	2.260105	1162.480000
35.139631	3.484783	2.258847	1162.979000
35.122903	3.485945	2.257300	1163.479000
35.105627	3.487486	2.255801	1163.979000
35.083520	3.489031	2.254251	1164.479000
35.066625	3.490243	2.252882	1164.979000
35.045900	3.490990	2.251611	1165.480000
35.026276	3.491872	2.250390	1165.979000
35.004004	3.492581	2.249013	1166.479000
34.984259	3.493439	2.247603	1166.979000
34.970029	3.494769	2.246387	1167.479000
34.947719	3.496206	2.245227	1167.979000
34.930701	3.497256	2.243994	1168.479000
34.912978	3.497672	2.242661	1168.979000
34.893325	3.498020	2.241338	1169.479000
34.872836	3.498446	2.239928	1169.980000
34.852845	3.498806	2.238507	1170.479000
34.833035	3.499296	2.236899	1170.979000
34.814921	3.499735	2.235150	1171.479000
34.793536	3.500249	2.233636	1171.979000
34.771396	3.500725	2.232529	1172.479000
34.751251	3.501030	2.231261	1172.979000
34.733575	3.501580	2.230126	1173.480000
34.714487	3.501796	2.228895	1173.979000
34.697628	3.501584	2.227378	1174.480000
34.680861	3.501105	2.225721	1174.979000
34.663152	3.500121	2.224187	1175.479000
34.642730	3.498690	2.222714	1175.979000
34.625015	3.497092	2.221375	1176.479000
34.605429	3.495789	2.220155	1176.979000
34.584497	3.495585	2.219052	1177.479000
34.561118	3.495416	2.217920	1177.979000
34.545269	3.495490	2.216726	1178.479000
34.528254	3.495582	2.215368	1178.980000
34.508463	3.495892	2.214108	1179.479000
34.486028	3.496242	2.212775	1179.979000
34.468795	3.495884	2.211431	1180.479000
34.444242	3.495145	2.210113	1180.979000
34.427809	3.494100	2.208862	1181.479000
34.409583	3.493647	2.207640	1181.979000
34.389346	3.493312	2.206165	1182.479000
34.372216	3.492825	2.204779	1182.980000
34.352599	3.492180	2.203424	1183.480000
34.333265	3.491427	2.202102	1183.979000
34.309179	3.490370	2.200746	1184.480000
34.293775	3.488838	2.199410	1184.979000
34.275679	3.487500	2.197955	1185.479000
34.256104	3.485777	2.196700	1185.979000
34.239185	3.483955	2.195445	1186.479000
34.221161	3.481964	2.194069	1186.979000
34.203561	3.480101	2.192676	1187.479000
34.181351	3.478337	2.191348	1187.979000
34.167404	3.476609	2.189992	1188.480000
34.148727	3.475310	2.188721	1188.979000
34.128070	3.474130	2.187608	1189.479000
34.111058	3.473317	2.186302	1189.979000
34.090362	3.472321	2.185019	1190.479000
34.070627	3.471324	2.183595	1190.979000
34.043723	3.470322	2.182285	1191.479000
34.032993	3.469063	2.180936	1191.979000
34.015036	3.467558	2.179612	1192.479000
33.993985	3.465521	2.178322	1192.979000
33.969855	3.463369	2.177038	1193.480000
33.957733	3.461090	2.175791	1193.979000
33.938404	3.459173	2.174538	1194.479000
33.916515	3.457515	2.173322	1194.979000
33.895243	3.456360	2.172110	1195.479000
33.876542	3.455132	2.170941	1195.979000
33.855319	3.453753	2.169654	1196.480000
33.838114	3.451913	2.168174	1196.979000
33.822918	3.449946	2.166638	1197.480000
33.805804	3.448021	2.165249	1197.979000
33.788475	3.445820	2.163863	1198.480000
33.770202	3.443747	2.162551	1198.979000
33.749362	3.441751	2.161238	1199.479000
33.734494	3.439560	2.159873	1199.979000
33.717836	3.437177	2.158611	1200.479000
33.699854	3.435114	2.157446	1200.979000
33.677213	3.433314	2.156406	1201.479000
33.656107	3.431731	2.155458	1201.979000
33.640616	3.429892	2.154248	1202.479000
33.621429	3.427453	2.152859	1202.979000
33.600578	3.424501	2.151577	1203.479000
33.581120	3.421764	2.150168	1203.980000
33.560877	3.419495	2.148620	1204.479000
33.542420	3.417612	2.147073	1204.979000
33.526191	3.415396	2.145721	1205.479000
33.506783	3.413171	2.144400	1205.979000
33.486389	3.410734	2.143231	1206.479000
33.466196	3.408273	2.142086	1206.979000
33.450156	3.405755	2.140996	1207.479000
33.431125	3.403201	2.139962	1207.979000
33.412674	3.400383	2.138777	1208.479000
33.393206	3.397447	2.137312	1208.979000
33.373058	3.394318	2.135837	1209.479000
33.353909	3.391185	2.134603	1209.980000
33.334081	3.388102	2.133294	1210.479000
33.315549	3.385201	2.131962	1210.979000
33.291879	3.382297	2.130703	1211.479000
33.272025	3.379140	2.129517	1211.979000
33.258051	3.375926	2.128191	1212.479000
33.240598	3.372878	2.127000	1212.979000
33.222575	3.369516	2.125800	1213.479000
33.203749	3.366161	2.124392	1213.980000
33.183394	3.362785	2.122997	1214.479000
33.159649	3.358863	2.121762	1214.979000
33.145480	3.355103	2.120524	1215.479000
33.128643	3.351528	2.119324	1215.979000
33.110999	3.347789	2.118062	1216.479000
33.092148	3.344167	2.116690	1216.979000
33.074026	3.340423	2.115306	1217.479000
33.055832	3.336914	2.113985	1217.979000
33.036942	3.333564	2.112690	1218.479000
33.020456	3.330089	2.111517	1218.979000
33.001983	3.326739	2.110347	1219.479000
32.980963	3.323587	2.109209	1219.979000
32.961517	3.320200	2.107884	1220.479000
32.944785	3.316429	2.106576	1220.979000
32.925952	3.312324	2.105274	1221.479000
32.906494	3.308011	2.103999	1221.979000
32.887204	3.303823	2.102751	1222.479000
32.867078	3.299679	2.101524	1222.979000
32.848156	3.295756	2.100327	1223.479000
32.825680	3.291920	2.099139	1223.979000
32.807942	3.287859	2.097974	1224.479000
32.788492	3.283647	2.096650	1224.979000
32.770907	3.279263	2.095355	1225.480000
32.753583	3.275032	2.094146	1225.979000
32.730917	3.270775	2.093012	1226.479000
32.712955	3.266334	2.091807	1226.979000
32.694385	3.261489	2.090518	1227.479000
32.674850	3.256563	2.089301	1227.979000
32.658223	3.251584	2.088306	1228.479000
32.638434	3.246676	2.087276	1228.979000
32.623608	3.242106	2.086026	1229.479000
32.601856	3.237500	2.084578	1229.979000
32.584483	3.232510	2.083177	1230.479000
32.562799	3.227549	2.081797	1230.979000
32.549863	3.222862	2.080516	1231.479000
32.532764	3.218239	2.079341	1231.979000
32.512662	3.213812	2.078165	1232.479000
32.496445	3.208931	2.076879	1232.979000
32.478029	3.204297	2.075626	1233.479000
32.461947	3.199462	2.074430	1233.979000
32.447496	3.194570	2.073308	1234.479000
32.428739	3.189758	2.072347	1234.979000
32.406891	3.184885	2.071399	1235.479000
32.384695	3.179544	2.070103	1235.979000
32.370654	3.174424	2.068779	1236.479000
32.355377	3.169288	2.067597	1236.979000
32.338043	3.163931	2.066443	1237.479000
32.319073	3.158860	2.065282	1237.979000
32.300143	3.153742	2.064372	1238.479000
32.281176	3.148579	2.063394	1238.979000
32.262306	3.143450	2.062258	1239.479000
32.242821	3.138793	2.061031	1239.979000
32.229067	3.134047	2.059653	1240.479000
32.210358	3.129188	2.058540	1240.979000
32.185181	3.123956	2.057472	1241.479000
32.164407	3.118849	2.056306	1241.979000
32.154698	3.113935	2.055137	1242.479000
32.137269	3.109101	2.053883	1242.979000
32.116812	3.104209	2.052823	1243.479000
32.100102	3.099289	2.051609	1243.979000
32.083933	3.094183	2.050428	1244.479000
32.066322	3.089165	2.049438	1244.979000
32.043082	3.084442	2.048305	1245.479000
32.026529	3.079888	2.047240	1245.979000
32.008252	3.074729	2.046353	1246.479000
31.989368	3.068876	2.045408	1246.979000
31.969397	3.063141	2.044253	1247.479000
31.950242	3.057597	2.043115	1247.979000
31.931356	3.051750	2.042002	1248.479000
31.912387	3.045816	2.040963	1248.979000
31.891339	3.040293	2.039783	1249.479000
31.873062	3.034605	2.038667	1249.979000
31.851196	3.028959	2.037475	1250.479000
31.829248	3.023338	2.036214	1250.979000
31.808591	3.017816	2.035079	1251.479000
31.795255	3.012284	2.033944	1251.979000
31.779037	3.006316	2.032831	1252.479000
31.752451	3.000556	2.031639	1252.979000
31.735055	2.995221	2.030462	1253.479000
31.719657	2.990237	2.029253	1253.980000
31.703876	2.985196	2.028081	1254.479000
31.687801	2.980443	2.027072	1254.979000
31.670055	2.975770	2.026120	1255.480000
31.649627	2.971401	2.025238	1255.979000
31.635688	2.966682	2.024451	1256.480000
31.615795	2.962007	2.023610	1256.979000
31.595621	2.957228	2.022601	1257.479000
31.577280	2.952483	2.021604	1257.979000
31.558099	2.947484	2.020564	1258.479000
31.540326	2.942836	2.019395	1258.979000
31.521826	2.938005	2.018252	1259.479000
31.505077	2.933394	2.017352	1259.979000
31.484150	2.928993	2.016589	1260.479000
31.465280	2.924704	2.015647	1260.980000
31.446230	2.920299	2.014521	1261.479000
31.427197	2.916311	2.013355	1261.979000
31.408939	2.912733	2.012246	1262.479000
31.390741	2.909035	2.011233	1262.979000
31.373225	2.905010	2.010325	1263.479000
31.357476	2.900870	2.009395	1263.979000
31.332284	2.896856	2.008451	1264.479000
31.315297	2.892941	2.007680	1264.979000
31.296875	2.888876	2.006737	1265.479000
31.278156	2.885119	2.005655	1265.979000
31.261722	2.881448	2.004560	1266.479000
31.241635	2.878097	2.003477	1266.979000
31.227481	2.875381	2.002459	1267.479000
31.215963	2.872684	2.001476	1267.979000
31.194642	2.869733	2.000518	1268.479000
31.173226	2.866827	1.999697	1268.979000
31.155286	2.864006	1.998736	1269.479000
31.134944	2.861262	1.997747	1269.979000
31.113740	2.858645	1.996766	1270.479000
31.093983	2.856393	1.995807	1270.980000
31.078260	2.854400	1.994899	1271.479000
31.060958	2.852368	1.993892	1271.980000
31.042079	2.850187	1.992809	1272.479000
31.023449	2.847723	1.991647	1272.980000
31.002330	2.845439	1.990626	1273.479000
30.986963	2.843158	1.989741	1273.979000
30.971086	2.841213	1.988850	1274.479000
30.953818	2.839698	1.987870	1274.979000
30.935532	2.838111	1.986853	1275.479000
30.917905	2.836262	1.985893	1275.979000
30.897879	2.834566	1.984952	1276.479000
30.882065	2.832818	1.984030	1276.979000
30.861911	2.831475	1.983166	1277.479000
30.842858	2.830326	1.982284	1277.979000
30.822025	2.829607	1.981399	1278.479000
30.804685	2.828777	1.980342	1278.979000
30.787328	2.827728	1.979337	1279.479000
30.768813	2.826400	1.978438	1279.979000
30.751250	2.825082	1.977552	1280.480000
30.732926	2.824154	1.976799	1280.979000
30.713696	2.823705	1.975864	1281.479000
30.695509	2.823123	1.974985	1281.980000
30.677313	2.822618	1.973954	1282.479000
30.653926	2.822125	1.972797	1282.979000
30.635741	2.821789	1.971575	1283.479000
30.618542	2.821613	1.970566	1283.979000
30.600669	2.821262	1.969588	1284.479000
30.580260	2.821101	1.968646	1284.979000
30.562208	2.821136	1.967606	1285.479000
30.545824	2.821226	1.966742	1285.979000
30.528720	2.821349	1.965871	1286.479000
30.508762	2.821541	1.964875	1286.979000
30.486618	2.822271	1.963931	1287.479000
30.469682	2.823010	1.962970	1287.979000
30.450891	2.823713	1.961984	1288.479000
30.433247	2.824169	1.961090	1288.979000
30.413767	2.824587	1.960103	1289.479000
30.396318	2.824900	1.959070	1289.979000
30.378416	2.825312	1.958032	1290.480000
30.358646	2.826296	1.957048	1290.980000
30.333329	2.827265	1.956088	1291.479000
30.318887	2.828111	1.955085	1291.979000
30.302104	2.829129	1.954001	1292.479000
30.282376	2.830412	1.952788	1292.979000
30.263225	2.831882	1.951584	1293.479000
30.243295	2.833533	1.950549	1293.979000
30.226488	2.834998	1.949506	1294.479000
30.205404	2.835943	1.948469	1294.980000
30.183064	2.836979	1.947507	1295.479000
30.164968	2.837980	1.946396	1295.980000
30.145743	2.839122	1.945276	1296.479000
30.129575	2.840807	1.944135	1296.979000
30.113107	2.842855	1.942883	1297.479000
30.091679	2.844459	1.941765	1297.979000
30.070921	2.845622	1.940712	1298.479000
30.052523	2.847036	1.939617	1298.979000
30.031775	2.848453	1.938636	1299.479000
30.011760	2.849902	1.937760	1299.979000
29.993135	2.851530	1.936746	1300.480000
29.974427	2.853280	1.935699	1300.979000
29.951172	2.855065	1.934640	1301.479000
29.929590	2.856575	1.933453	1301.979000
29.911164	2.858124	1.932167	1302.479000
29.891477	2.859768	1.930896	1302.979000
29.873205	2.861712	1.929644	1303.479000
29.851871	2.863830	1.928465	1303.979000
29.826419	2.865541	1.927260	1304.479000
29.809004	2.867114	1.925951	1304.979000
29.794446	2.868897	1.924702	1305.479000
29.769760	2.871266	1.923401	1305.979000
29.752406	2.873510	1.922164	1306.480000
29.741795	2.875177	1.920992	1306.979000
29.720363	2.876574	1.919719	1307.480000
29.699245	2.878204	1.918501	1307.979000
29.678278	2.880016	1.917296	1308.479000
29.659002	2.882301	1.916092	1308.979000
29.641035	2.884813	1.914851	1309.479000
29.629113	2.886946	1.913524	1309.979000
29.608462	2.888540	1.912281	1310.479000
29.585358	2.889545	1.911257	1310.979000
29.566264	2.890376	1.910205	1311.479000
29.552795	2.891650	1.909082	1311.979000
29.532025	2.893224	1.907817	1312.479000
29.514257	2.895213	1.906601	1312.979000
29.494647	2.897145	1.905490	1313.479000
29.477386	2.899117	1.904247	1313.979000
29.458046	2.900791	1.903068	1314.479000
29.437429	2.902500	1.901832	1314.979000
29.418958	2.904442	1.900437	1315.479000
29.400464	2.906448	1.899182	1315.979000
29.375631	2.908145	1.897885	1316.479000
29.361997	2.909706	1.896674	1316.979000
29.342346	2.910977	1.895459	1317.479000
29.320403	2.911828	1.894205	1317.979000
29.305436	2.913024	1.892925	1318.479000
29.286004	2.914676	1.891520	1318.979000
29.263089	2.916349	1.890155	1319.479000
29.247539	2.918040	1.888974	1319.979000
29.228631	2.919534	1.887626	1320.479000
29.210285	2.920833	1.886301	1320.979000
29.191120	2.922047	1.885039	1321.479000
29.169382	2.923435	1.883820	1321.979000
29.150791	2.924975	1.882796	1322.479000
29.131729	2.926632	1.881680	1322.979000
29.105121	2.927999	1.880295	1323.479000
29.084179	2.929449	1.878804	1323.979000
29.071103	2.931157	1.877329	1324.479000
29.053085	2.932929	1.876106	1324.979000
29.036179	2.934635	1.874940	1325.479000
29.016799	2.935988	1.873555	1325.979000
28.997445	2.937088	1.872243	1326.479000
28.976690	2.938164	1.870883	1326.979000
28.950911	2.939364	1.869653	1327.479000
28.937693	2.940462	1.868317	1327.979000
28.918762	2.941714	1.866964	1328.479000
28.891303	2.943040	1.865518	1328.979000
28.875960	2.944167	1.864104	1329.480000
28.850255	2.945104	1.862678	1329.979000
28.828887	2.946073	1.861250	1330.479000
28.818501	2.947186	1.859840	1330.979000
28.796280	2.948264	1.858604	1331.479000
28.769412	2.949160	1.857460	1331.979000
28.751954	2.950257	1.856134	1332.479000
28.732080	2.951403	1.854669	1332.979000
28.709212	2.952446	1.853112	1333.479000
28.690081	2.953358	1.851469	1333.979000
28.673136	2.954175	1.849827	1334.479000
28.651148	2.955039	1.848241	1334.979000
28.630702	2.955909	1.846809	1335.479000
28.612266	2.956490	1.845290	1335.980000
28.594431	2.956758	1.843816	1336.479000
28.576627	2.956821	1.842512	1336.979000
28.556905	2.957394	1.841334	1337.479000
28.537803	2.958286	1.840121	1337.979000
28.518412	2.959167	1.838837	1338.479000
28.497856	2.959723	1.837404	1338.979000
28.478946	2.960055	1.835859	1339.479000
28.462559	2.960533	1.834446	1339.979000
28.441676	2.961450	1.833044	1340.479000
28.421354	2.962366	1.831626	1340.979000
28.401292	2.962985	1.830341	1341.479000
28.374933	2.963266	1.829008	1341.979000
28.352333	2.963836	1.827664	1342.480000
28.336157	2.964285	1.826116	1342.980000
28.323306	2.964615	1.824655	1343.479000
28.303087	2.964935	1.823060	1343.979000
28.280496	2.965421	1.821585	1344.479000
28.262579	2.965541	1.820271	1344.979000
28.243902	2.965469	1.818936	1345.479000
28.228821	2.965423	1.817689	1345.980000
28.211013	2.965561	1.816425	1346.479000
28.189535	2.966074	1.815049	1346.979000
28.170978	2.966406	1.813704	1347.479000
28.153000	2.966368	1.812339	1347.979000
28.136969	2.966404	1.811034	1348.479000
28.118786	2.966293	1.809789	1348.979000
28.098600	2.965985	1.808465	1349.479000
28.073885	2.965751	1.807251	1349.979000
28.055020	2.965748	1.805897	1350.479000
28.037786	2.965908	1.804527	1350.979000
28.021658	2.966017	1.803156	1351.479000
28.001905	2.966208	1.801674	1351.979000
27.980486	2.966599	1.800209	1352.479000
27.962482	2.966796	1.798649	1352.979000
27.943905	2.966771	1.797224	1353.479000
27.925508	2.966344	1.795694	1353.979000
27.905781	2.966043	1.794290	1354.479000
27.888845	2.965610	1.793060	1354.979000
27.868062	2.964761	1.791820	1355.479000
27.846940	2.963885	1.790522	1355.979000
27.827695	2.963237	1.789238	1356.479000
27.810209	2.962858	1.788116	1356.979000
27.793938	2.962979	1.786948	1357.479000
27.772295	2.962722	1.785741	1357.979000
27.751100	2.962100	1.784569	1358.480000
27.730566	2.961372	1.783245	1358.979000
27.717995	2.960763	1.781967	1359.480000
27.699041	2.960097	1.780574	1359.979000
27.682352	2.959434	1.779205	1360.480000
27.664390	2.958983	1.777610	1360.979000
27.644209	2.958335	1.775861	1361.479000
27.621940	2.957548	1.774268	1361.979000
27.609844	2.957217	1.772931	1362.479000
27.591912	2.956893	1.771601	1362.979000
27.571562	2.956233	1.770259	1363.479000
27.549753	2.954918	1.768857	1363.980000
27.531890	2.953669	1.767511	1364.479000
27.511003	2.952447	1.766353	1364.979000
27.493286	2.951479	1.765237	1365.479000
27.475802	2.950652	1.764081	1365.979000
27.458587	2.949821	1.762807	1366.479000
27.442000	2.948812	1.761659	1366.980000
27.425492	2.947555	1.760481	1367.479000
27.400721	2.946240	1.759196	1367.979000
27.384557	2.945273	1.757755	1368.479000
27.363320	2.944459	1.756276	1368.979000
27.344944	2.943834	1.754950	1369.479000
27.325284	2.942859	1.753712	1369.979000
27.308211	2.941957	1.752340	1370.480000
27.290534	2.941092	1.750782	1370.979000
27.276697	2.940036	1.749138	1371.479000
27.257940	2.938883	1.747698	1371.979000
27.236012	2.937463	1.746256	1372.479000
27.218747	2.936025	1.745024	1372.980000
27.203899	2.934629	1.743727	1373.479000
27.181261	2.932998	1.742538	1373.979000
27.158100	2.931105	1.741395	1374.479000
27.145121	2.929142	1.740161	1374.979000
27.128766	2.927804	1.738806	1375.479000
27.104280	2.926668	1.737322	1375.980000
27.087286	2.925243	1.736090	1376.479000
27.068805	2.923587	1.734794	1376.979000
27.052987	2.921703	1.733385	1377.479000
27.033434	2.919905	1.732028	1377.979000
27.012557	2.917977	1.731049	1378.480000
26.994082	2.916309	1.729939	1378.979000
26.974719	2.914488	1.728544	1379.479000
26.957207	2.912484	1.727194	1379.979000
26.939696	2.910589	1.725971	1380.480000
26.928435	2.908919	1.724606	1380.979000
26.906849	2.906997	1.723359	1381.479000
26.881218	2.904899	1.722107	1381.979000
26.870874	2.902781	1.720750	1382.479000
26.852423	2.900507	1.719335	1382.979000
26.835320	2.898032	1.718093	1383.479000
26.807145	2.895481	1.716856	1383.980000
26.796575	2.893021	1.715578	1384.479000
26.776933	2.890289	1.714373	1384.979000
26.762133	2.888039	1.713277	1385.479000
26.741474	2.885960	1.711967	1385.979000
26.724460	2.883640	1.710609	1386.479000
26.709643	2.881446	1.709159	1386.979000
26.689690	2.879428	1.707727	1387.479000
26.669702	2.877482	1.706333	1387.979000
26.648513	2.875280	1.705096	1388.479000
26.631275	2.872692	1.703904	1388.979000
26.613162	2.869964	1.702662	1389.479000
26.592764	2.867168	1.701325	1389.979000
26.571875	2.864277	1.699934	1390.479000
26.550901	2.860966	1.698580	1390.979000
26.542793	2.857213	1.697302	1391.479000
26.522760	2.853823	1.695955	1391.979000
26.501660	2.850609	1.694729	1392.479000
26.486508	2.847380	1.693475	1392.979000
26.470581	2.844213	1.692208	1393.479000
26.453815	2.841272	1.690957	1393.979000
26.436396	2.838630	1.689757	1394.479000
26.420380	2.835759	1.688546	1394.979000
26.397730	2.832801	1.687156	1395.479000
26.377559	2.829579	1.685838	1395.979000
26.358090	2.825841	1.684551	1396.479000
26.338487	2.822033	1.683326	1396.979000
26.311315	2.818306	1.681995	1397.479000
26.294793	2.814328	1.680712	1397.979000
26.274669	2.810518	1.679413	1398.479000
26.253310	2.806936	1.678043	1398.980000
26.241483	2.803291	1.676774	1399.479000
26.224467	2.799371	1.675259	1399.979000
26.208061	2.795453	1.673822	1400.479000
26.191611	2.791328	1.672418	1400.979000
26.172143	2.787174	1.671191	1401.479000
26.153766	2.783090	1.669935	1401.979000
26.133809	2.778960	1.668725	1402.480000
26.115569	2.774989	1.667585	1402.979000
26.095587	2.770663	1.666265	1403.479000
26.077371	2.766256	1.664994	1403.979000
26.054529	2.761759	1.663896	1404.479000
26.040735	2.757326	1.662700	1404.980000
26.022458	2.752518	1.661386	1405.479000
26.004108	2.747663	1.660118	1405.979000
25.984807	2.742805	1.658751	1406.479000
25.962779	2.737996	1.657446	1406.979000
25.943048	2.733304	1.656128	1407.479000
25.923145	2.728348	1.654810	1407.979000
25.904883	2.722909	1.653396	1408.479000
25.884634	2.717198	1.651857	1408.979000
25.868283	2.711831	1.650346	1409.479000
25.849667	2.707260	1.649076	1409.979000
25.830026	2.702405	1.648010	1410.479000
25.803999	2.697020	1.646804	1410.979000
25.786286	2.691002	1.645643	1411.480000
25.767066	2.684941	1.644338	1411.979000
25.749385	2.678985	1.642884	1412.480000
25.727114	2.672735	1.641474	1412.979000
25.708774	2.666559	1.640078	1413.479000
25.690988	2.660316	1.638754	1413.979000
25.667587	2.654050	1.637447	1414.479000
25.650482	2.647259	1.636046	1414.979000
25.630773	2.640546	1.634709	1415.479000
25.613912	2.634369	1.633263	1415.979000
25.591809	2.627710	1.631900	1416.479000
25.573737	2.620562	1.630408	1416.979000
25.556801	2.613114	1.628994	1417.479000
25.537805	2.605743	1.627641	1417.979000
25.516040	2.598900	1.626257	1418.479000
25.497257	2.592290	1.624926	1418.980000
25.474918	2.585825	1.623502	1419.479000
25.453541	2.578947	1.622053	1419.979000
25.435322	2.571355	1.620696	1420.479000
25.417141	2.563417	1.619407	1420.979000
25.396789	2.554831	1.618101	1421.479000
25.375711	2.546412	1.616873	1421.979000
25.352264	2.538233	1.615693	1422.479000
25.332425	2.530201	1.614387	1422.979000
25.311926	2.521941	1.612969	1423.479000
25.293414	2.513389	1.611457	1423.979000
25.273999	2.504648	1.609934	1424.479000
25.251522	2.495474	1.608592	1424.979000
25.232010	2.485922	1.607182	1425.479000
25.214315	2.475839	1.605862	1425.979000
25.191662	2.466228	1.604396	1426.479000
25.171276	2.456808	1.603097	1426.979000
25.152325	2.446983	1.601697	1427.479000
25.135727	2.436909	1.600211	1427.979000
25.113071	2.427038	1.598806	1428.479000
25.096136	2.416429	1.597546	1428.979000
25.073705	2.405638	1.596466	1429.480000
25.055715	2.395016	1.595225	1429.979000
25.034628	2.384174	1.593779	1430.480000
25.014099	2.372961	1.592373	1430.979000
24.994031	2.361618	1.591090	1431.479000
24.975904	2.350150	1.589741	1431.979000
24.953305	2.338842	1.588219	1432.479000
24.931567	2.327152	1.586758	1432.979000
24.909631	2.314880	1.585437	1433.479000
24.891406	2.302181	1.584119	1433.979000
24.871637	2.289200	1.582779	1434.479000
24.851135	2.276278	1.581322	1434.979000
24.826352	2.263040	1.579905	1435.479000
24.806262	2.249443	1.578478	1435.979000
24.788068	2.235164	1.577120	1436.479000
24.768600	2.220457	1.575688	1436.979000
24.751665	2.205709	1.574204	1437.479000
24.736108	2.190719	1.572762	1437.979000
24.714923	2.175953	1.571346	1438.479000
24.697593	2.160869	1.570082	1438.980000
24.675774	2.145512	1.568804	1439.479000
24.657153	2.130199	1.567491	1439.979000
24.638563	2.114749	1.566248	1440.479000
24.618072	2.098810	1.564886	1440.979000
24.600994	2.082659	1.563521	1441.479000
24.578121	2.066461	1.562135	1441.979000
24.553702	2.049791	1.561005	1442.479000
24.540088	2.032533	1.559912	1442.979000
24.523413	2.014803	1.558676	1443.479000
24.502206	1.996782	1.557370	1443.979000
24.481037	1.978526	1.556039	1444.480000
24.458299	1.959707	1.554729	1444.979000
24.441278	1.940022	1.553450	1445.479000
24.429245	1.920114	1.552147	1445.979000
24.407901	1.900259	1.551047	1446.479000
24.388139	1.879747	1.549934	1446.979000
24.367724	1.858750	1.548795	1447.479000
24.344403	1.837336	1.547618	1447.979000
24.323923	1.815767	1.546237	1448.479000
24.312570	1.793557	1.545123	1448.979000
24.289874	1.770755	1.544074	1449.479000
24.273911	1.747408	1.542997	1449.979000
24.257734	1.723608	1.541835	1450.479000
24.239517	1.699688	1.540830	1450.979000
24.220085	1.675595	1.539722	1451.479000
24.200189	1.651386	1.538487	1451.979000
24.181140	1.627088	1.537031	1452.479000
24.159872	1.602047	1.535736	1452.979000
24.142612	1.576407	1.534510	1453.479000
24.123166	1.549995	1.533223	1453.979000
24.102354	1.523189	1.532098	1454.480000
24.076447	1.495995	1.531085	1454.979000
24.053275	1.467609	1.529930	1455.479000
24.040596	1.438138	1.528904	1455.979000
24.021379	1.408227	1.528135	1456.479000
23.999756	1.377594	1.527517	1456.979000
23.974994	1.346322	1.526736	1457.479000
23.958893	1.314345	1.525905	1457.979000
23.937738	1.281759	1.524928	1458.479000
23.917471	1.248807	1.523821	1458.979000
23.904694	1.215802	1.522741	1459.479000
23.888164	1.182831	1.521830	1459.980000
23.865027	1.150572	1.521021	1460.479000
23.848708	1.118345	1.520440	1460.979000
23.827149	1.086380	1.519914	1461.479000
23.809454	1.054656	1.519177	1461.979000
23.792554	1.023102	1.518388	1462.479000
23.773526	0.991819	1.517667	1462.979000
23.750089	0.961358	1.517037	1463.480000
23.735685	0.931314	1.516588	1463.979000
23.714475	0.901527	1.516282	1464.479000
23.692140	0.871604	1.515734	1464.979000
23.673235	0.841707	1.515212	1465.479000
23.654306	0.812088	1.514829	1465.979000
23.636567	0.783119	1.514338	1466.479000
23.610605	0.754990	1.513940	1466.979000
23.590540	0.727722	1.513554	1467.479000
23.572229	0.701206	1.513192	1467.979000
23.557220	0.675558	1.512940	1468.479000
23.535327	0.651076	1.512707	1468.979000
23.513207	0.627333	1.512508	1469.479000
23.494017	0.604532	1.512363	1469.980000
23.475875	0.582810	1.512218	1470.479000
23.459493	0.562290	1.512140	1470.980000
23.436752	0.542272	1.512074	1471.479000
23.416917	0.523054	1.511907	1471.979000
23.397791	0.504804	1.511703	1472.479000
23.380725	0.487735	1.511706	1472.979000
23.364111	0.472238	1.511719	1473.479000
23.341446	0.457643	1.511603	1473.979000
23.322461	0.443590	1.511628	1474.479000
23.302749	0.430044	1.511684	1474.979000
23.285080	0.416981	1.511853	1475.479000
23.267159	0.404100	1.512000	1475.979000
23.254905	0.392238	1.512143	1476.479000
23.231305	0.381130	1.512223	1476.979000
23.215079	0.370331	1.512266	1477.479000
23.194913	0.360616	1.512267	1477.979000
23.174417	0.351263	1.512374	1478.479000
23.157050	0.341911	1.512622	1478.979000
23.140361	0.333115	1.512920	1479.479000
23.120632	0.324986	1.513080	1479.979000
23.104632	0.317238	1.513258	1480.479000
23.083310	0.309715	1.513259	1480.979000
23.064923	0.302218	1.513345	1481.479000
23.045122	0.295055	1.513573	1481.979000
23.026663	0.288709	1.513928	1482.479000
23.009842	0.283042	1.514171	1482.979000
22.986261	0.277520	1.514286	1483.479000
22.973816	0.272270	1.514158	1483.979000
22.948643	0.267467	1.514089	1484.479000
22.927911	0.262866	1.514057	1484.979000
22.914842	0.258606	1.513979	1485.479000
22.898503	0.254875	1.513940	1485.979000
22.873682	0.251539	1.513939	1486.479000
22.855283	0.248957	1.513980	1486.979000
22.837103	0.247022	1.513878	1487.479000
22.823914	0.245621	1.513932	1487.979000
22.805310	0.245095	1.513979	1488.479000
22.785858	0.245155	1.514117	1488.979000
22.766364	0.245941	1.514270	1489.479000
22.747428	0.247835	1.514449	1489.979000
22.727885	0.250836	1.514671	1490.479000
22.705075	0.254580	1.514757	1490.980000
22.689587	0.258743	1.514778	1491.479000
22.670752	0.263738	1.514933	1491.979000
22.651938	0.269415	1.514945	1492.479000
22.637741	0.276535	1.514730	1492.979000
22.612726	0.284555	1.514551	1493.479000
22.595761	0.293838	1.514651	1493.979000
22.577206	0.304606	1.514743	1494.479000
22.561991	0.316628	1.514709	1494.979000
22.540161	0.328994	1.514550	1495.479000
22.518014	0.342126	1.514494	1495.979000
22.500162	0.356537	1.514347	1496.479000
22.483591	0.372529	1.514286	1496.979000
22.468594	0.389409	1.514121	1497.479000
22.450134	0.406859	1.513934	1497.979000
22.426981	0.424381	1.513604	1498.479000
22.412131	0.442229	1.513325	1498.979000
22.396695	0.461033	1.513019	1499.479000
22.374510	0.480521	1.512645	1499.979000
22.348319	0.500324	1.512374	1500.479000
22.331285	0.520516	1.512175	1500.979000
22.319574	0.541136	1.511928	1501.479000
22.301031	0.562142	1.511362	1501.979000
22.280145	0.583120	1.510690	1502.479000
22.266776	0.604005	1.510043	1502.979000
22.244504	0.625113	1.509572	1503.479000
22.219027	0.646005	1.509147	1503.979000
22.199736	0.667046	1.508534	1504.479000
22.190416	0.688246	1.507869	1504.979000
22.174255	0.709642	1.507172	1505.479000
22.151480	0.730758	1.506187	1505.979000
22.128680	0.751232	1.505049	1506.480000
22.108359	0.771268	1.503844	1506.979000
22.093790	0.791187	1.502536	1507.479000
22.076465	0.811483	1.501382	1507.979000
22.058127	0.831560	1.500203	1508.479000
22.043873	0.851232	1.499063	1508.980000
22.024603	0.870168	1.497830	1509.479000
22.016533	0.888472	1.496550	1509.979000
21.998653	0.906111	1.495034	1510.479000
21.974391	0.923054	1.493361	1510.980000
21.957810	0.939297	1.491741	1511.479000
21.940387	0.955242	1.490186	1511.979000
21.919824	0.971038	1.488634	1512.479000
21.903275	0.986543	1.487029	1512.979000
21.886125	1.002140	1.485351	1513.479000
21.864388	1.017038	1.483645	1513.979000
21.846174	1.032026	1.481931	1514.479000
21.829358	1.047177	1.480202	1514.979000
21.811288	1.062010	1.478623	1515.479000
21.794942	1.076081	1.477178	1515.979000
21.780185	1.090113	1.475550	1516.479000
21.762228	1.104050	1.473728	1516.979000
21.741943	1.117373	1.471872	1517.479000
21.728220	1.130349	1.469942	1517.980000
21.710233	1.143489	1.468247	1518.479000
21.692221	1.156098	1.466521	1518.979000
21.673538	1.168164	1.464743	1519.479000
21.656993	1.179828	1.462949	1519.979000
21.630954	1.191077	1.461207	1520.479000
21.611707	1.202579	1.459425	1520.979000
21.597859	1.213998	1.457682	1521.479000
21.580411	1.225293	1.455972	1521.979000
21.561407	1.236522	1.453963	1522.479000
21.540091	1.247495	1.451958	1522.979000
21.522824	1.257973	1.450026	1523.479000
21.503804	1.268338	1.448095	1523.979000
21.491235	1.278614	1.446153	1524.479000
21.474261	1.288125	1.444182	1524.979000
21.449461	1.297247	1.442339	1525.479000
21.434996	1.306239	1.440464	1525.979000
21.422652	1.314742	1.438669	1526.479000
21.405658	1.323068	1.436980	1526.979000
21.388513	1.331621	1.435252	1527.479000
21.369220	1.340006	1.433466	1527.979000
21.348472	1.347966	1.431608	1528.479000
21.326214	1.355529	1.429809	1528.979000
21.310486	1.363299	1.427950	1529.479000
21.293532	1.371158	1.426074	1529.979000
21.274906	1.378753	1.424191	1530.479000
21.256691	1.386570	1.422415	1530.979000
21.237057	1.394188	1.420696	1531.479000
21.216457	1.401667	1.419031	1531.979000
21.194714	1.409110	1.417335	1532.480000
21.176086	1.416695	1.415459	1532.979000
21.157895	1.424133	1.413498	1533.479000
21.139392	1.431723	1.411583	1533.979000
21.122036	1.439229	1.409637	1534.479000
21.104955	1.446674	1.407811	1534.979000
21.086366	1.454376	1.406025	1535.479000
21.062948	1.462030	1.404248	1535.979000
21.049576	1.469646	1.402590	1536.479000
21.031470	1.477320	1.400835	1536.979000
21.010664	1.485104	1.398908	1537.479000
20.989758	1.492825	1.397025	1537.979000
20.966859	1.500805	1.395187	1538.479000
20.948997	1.508972	1.393509	1538.979000
20.939277	1.517317	1.391808	1539.479000
20.923312	1.525700	1.390024	1539.979000
20.898199	1.534169	1.388217	1540.479000
20.882221	1.542441	1.386402	1540.979000
20.860743	1.550732	1.384545	1541.479000
20.846067	1.558923	1.382705	1541.979000
20.829208	1.567304	1.381101	1542.479000
20.808868	1.575714	1.379501	1542.979000
20.789655	1.584162	1.377817	1543.479000
20.770755	1.592539	1.375894	1543.979000
20.752258	1.600611	1.374121	1544.479000
20.731287	1.608476	1.372339	1544.979000
20.709433	1.616669	1.370774	1545.479000
20.689481	1.625007	1.369120	1545.979000
20.670352	1.633283	1.367515	1546.480000
20.651634	1.641870	1.365833	1546.979000
20.636099	1.650983	1.364168	1547.479000
20.614209	1.659887	1.362441	1547.979000
20.593042	1.668543	1.360728	1548.479000
20.578527	1.677063	1.359044	1548.979000
20.561009	1.685509	1.357543	1549.479000
20.542726	1.693701	1.356155	1549.979000
20.524322	1.701814	1.354671	1550.479000
20.506119	1.709872	1.353082	1550.980000
20.486511	1.717596	1.351544	1551.479000
20.466851	1.724578	1.349824	1551.979000
20.448224	1.731648	1.348039	1552.479000
20.426189	1.738887	1.346325	1552.979000
20.408557	1.746142	1.344684	1553.479000
20.389808	1.753511	1.342998	1553.979000
20.373593	1.760681	1.341438	1554.479000
20.356157	1.767184	1.339882	1554.979000
20.336192	1.773781	1.338227	1555.479000
20.321031	1.780544	1.336486	1555.979000
20.300296	1.786985	1.335005	1556.480000
20.285613	1.793323	1.333400	1556.979000
20.263377	1.799562	1.331918	1557.480000
20.249688	1.805246	1.330488	1557.979000
20.234071	1.810972	1.328948	1558.479000
20.215121	1.816571	1.327570	1558.979000
20.192706	1.822205	1.326352	1559.479000
20.176299	1.827623	1.325100	1559.979000
20.159863	1.832522	1.323682	1560.479000
20.141492	1.838083	1.322246	1560.979000
20.121117	1.843368	1.320840	1561.479000
20.099209	1.848678	1.319527	1561.980000
20.080138	1.853926	1.317937	1562.479000
20.062850	1.858783	1.316480	1562.979000
20.045683	1.863198	1.315005	1563.479000
20.025668	1.867837	1.313507	1563.979000
20.006498	1.872355	1.312188	1564.479000
19.985116	1.876483	1.310632	1564.979000
19.963264	1.880056	1.308996	1565.479000
19.941124	1.883598	1.307441	1565.979000
19.929157	1.887329	1.306001	1566.479000
19.910448	1.891099	1.304419	1566.979000
19.888899	1.894923	1.302803	1567.480000
19.868685	1.898456	1.301135	1567.979000
19.855476	1.901612	1.299607	1568.479000
19.837502	1.905209	1.298069	1568.979000
19.814123	1.908541	1.296732	1569.479000
19.792027	1.911375	1.295334	1569.979000
19.776962	1.913749	1.293938	1570.479000
19.759736	1.916007	1.292473	1570.979000
19.740892	1.918138	1.291074	1571.479000
19.722745	1.920710	1.289740	1571.980000
19.704250	1.923327	1.288294	1572.479000
19.688743	1.925769	1.286840	1572.979000
19.665649	1.928019	1.285337	1573.479000
19.645048	1.930137	1.283995	1573.979000
19.623181	1.932203	1.282767	1574.479000
19.606513	1.934183	1.281444	1574.979000
19.582993	1.935717	1.280024	1575.479000
19.568999	1.936987	1.278568	1575.979000
19.551787	1.938009	1.276845	1576.479000
19.531859	1.938615	1.275106	1576.979000
19.506132	1.939274	1.273601	1577.479000
19.489235	1.940174	1.272190	1577.979000
19.471309	1.941457	1.270810	1578.479000
19.454145	1.942520	1.269379	1578.979000
19.435737	1.943319	1.267811	1579.479000
19.417677	1.944216	1.266289	1579.979000
19.399162	1.945313	1.264929	1580.479000
19.378485	1.946424	1.263657	1580.979000
19.364284	1.947399	1.262400	1581.479000
19.345900	1.948148	1.261138	1581.979000
19.319911	1.948552	1.259780	1582.479000
19.298221	1.949129	1.258459	1582.980000
19.281565	1.949806	1.257126	1583.479000
19.263981	1.950327	1.255817	1583.979000
19.247238	1.950523	1.254558	1584.479000
19.229710	1.950589	1.253219	1584.979000
19.209484	1.950686	1.251754	1585.479000
19.189511	1.950618	1.250289	1585.979000
19.170138	1.950470	1.248808	1586.479000
19.148579	1.950073	1.247389	1586.979000
19.132375	1.949670	1.245991	1587.479000
19.114317	1.949261	1.244632	1587.979000
19.092646	1.948629	1.243182	1588.480000
19.074788	1.947871	1.241661	1588.980000
19.053189	1.947456	1.240266	1589.479000
19.033557	1.947222	1.238974	1589.979000
19.013384	1.947060	1.237787	1590.479000
18.992639	1.946982	1.236589	1590.979000
18.975185	1.946251	1.235403	1591.479000
18.955707	1.945311	1.234256	1591.979000
18.935644	1.944098	1.232966	1592.479000
18.915568	1.942655	1.231673	1592.980000
18.895572	1.941376	1.230430	1593.479000
18.878680	1.940241	1.229340	1593.979000
18.861482	1.939173	1.228232	1594.479000
18.841791	1.938070	1.227073	1594.979000
18.821086	1.937106	1.225803	1595.479000
18.800559	1.935982	1.224489	1595.979000
18.783213	1.934204	1.223035	1596.479000
18.763598	1.932439	1.221573	1596.979000
18.743031	1.931120	1.220068	1597.479000
18.724786	1.929794	1.218582	1597.979000
18.706873	1.928409	1.217223	1598.479000
18.688511	1.927065	1.215867	1598.979000
18.672469	1.925464	1.214489	1599.479000
18.653472	1.923692	1.213192	1599.979000
18.634935	1.922348	1.211804	1600.479000
18.612777	1.920884	1.210425	1600.979000
18.592798	1.919246	1.209191	1601.479000
18.571834	1.917453	1.208126	1601.980000
18.550989	1.915733	1.206948	1602.479000
18.533450	1.914120	1.205719	1602.980000
18.515312	1.912513	1.204532	1603.479000
18.496619	1.910747	1.203258	1603.980000
18.479350	1.908966	1.202081	1604.480000
18.462114	1.907200	1.200885	1604.979000
18.438487	1.905439	1.199686	1605.480000
18.419224	1.903771	1.198428	1605.979000
18.403382	1.902019	1.197130	1606.479000
18.381722	1.899746	1.195925	1606.979000
18.363510	1.897520	1.194832	1607.480000
18.342619	1.895370	1.193730	1607.979000
18.323594	1.893228	1.192531	1608.480000
18.305760	1.891337	1.191269	1608.979000
18.285813	1.889348	1.190029	1609.480000
18.267498	1.887539	1.188773	1609.979000
18.253689	1.885853	1.187274	1610.479000
18.236863	1.883691	1.185764	1610.979000
18.215728	1.881463	1.184410	1611.479000
18.195158	1.879472	1.183203	1611.980000
18.176956	1.877250	1.181882	1612.479000
18.157093	1.874920	1.180585	1612.979000
18.133902	1.872915	1.179353	1613.479000
18.116961	1.870926	1.178010	1613.980000
18.097833	1.868876	1.176711	1614.479000
18.078249	1.866607	1.175421	1614.979000
18.060686	1.864264	1.174129	1615.480000
18.048951	1.862024	1.172808	1615.979000
18.030183	1.859985	1.171398	1616.480000
18.007439	1.857815	1.170274	1616.979000
17.986026	1.855465	1.169246	1617.480000
17.973773	1.852772	1.168202	1617.979000
17.956345	1.850048	1.167032	1618.479000
17.936476	1.847309	1.165773	1618.979000
17.912234	1.844776	1.164430	1619.479000
17.891954	1.842518	1.163221	1619.979000
17.875366	1.840409	1.161967	1620.479000
17.859538	1.838034	1.160583	1620.979000
17.841487	1.835127	1.159356	1621.479000
17.814976	1.832122	1.158066	1621.979000
17.795582	1.829427	1.156968	1622.479000
17.777761	1.826669	1.155857	1622.979000
17.755109	1.824129	1.154594	1623.479000
17.736801	1.821106	1.153157	1623.979000
17.720399	1.817813	1.151570	1624.479000
17.704523	1.814506	1.150191	1624.980000
17.688177	1.811502	1.148997	1625.479000
17.668770	1.808541	1.147992	1625.979000
17.643014	1.805423	1.146989	1626.480000
17.621799	1.802078	1.145875	1626.979000
17.602984	1.798443	1.144616	1627.479000
17.591560	1.794471	1.143331	1627.979000
17.563613	1.790748	1.142031	1628.479000
17.551166	1.787064	1.140602	1628.979000
17.527832	1.783013	1.139260	1629.480000
17.508020	1.778931	1.137921	1629.979000
17.492156	1.774988	1.136629	1630.479000
17.479463	1.771465	1.135306	1630.980000
17.460660	1.767850	1.134065	1631.479000
17.438079	1.764047	1.132809	1631.980000
17.415834	1.760209	1.131511	1632.479000
17.397934	1.756333	1.130232	1632.979000
17.377161	1.752802	1.128936	1633.479000
17.367154	1.749196	1.127518	1633.979000
17.341359	1.745034	1.126374	1634.479000
17.325461	1.740742	1.125123	1634.979000
17.304801	1.735988	1.123877	1635.479000
17.287639	1.731203	1.122546	1635.979000
17.269946	1.726336	1.121382	1636.479000
17.251251	1.721292	1.120129	1636.979000
17.228176	1.716072	1.118907	1637.479000
17.214587	1.711294	1.117973	1637.979000
17.198633	1.706583	1.116955	1638.480000
17.174969	1.701535	1.115854	1638.979000
17.155008	1.695998	1.114670	1639.479000
17.131773	1.690438	1.113383	1639.979000
17.120343	1.684818	1.111959	1640.479000
17.102036	1.679109	1.110663	1640.979000
17.074013	1.672960	1.109152	1641.479000
17.054467	1.666906	1.107770	1641.979000
17.040768	1.660867	1.106539	1642.479000
17.020620	1.654673	1.105266	1642.979000
16.997533	1.648134	1.103989	1643.479000
16.977905	1.641368	1.102661	1643.979000
16.958942	1.634185	1.101330	1644.479000
16.945615	1.626909	1.099871	1644.979000
16.925832	1.619772	1.098476	1645.479000
16.900118	1.612621	1.097256	1645.979000
16.887071	1.605229	1.096153	1646.479000
16.871290	1.597397	1.094851	1646.979000
16.849636	1.589645	1.093584	1647.479000
16.830466	1.581688	1.092280	1647.979000
16.806225	1.573758	1.090916	1648.479000
16.787924	1.565871	1.089595	1648.979000
16.766476	1.557958	1.088307	1649.479000
16.744516	1.549602	1.087029	1649.979000
16.726889	1.540957	1.085621	1650.480000
16.716763	1.531538	1.084427	1650.979000
16.694439	1.522147	1.083177	1651.479000
16.680250	1.513113	1.081829	1651.979000
16.665237	1.504095	1.080606	1652.479000
16.650430	1.494687	1.079322	1652.979000
16.622314	1.485021	1.078168	1653.479000
16.605814	1.475335	1.077116	1653.979000
16.588858	1.465373	1.076121	1654.479000
16.568301	1.455068	1.075029	1654.979000
16.547557	1.444586	1.073847	1655.479000
16.529543	1.434115	1.072667	1655.979000
16.512296	1.424015	1.071528	1656.479000
16.494757	1.413753	1.070232	1656.979000
16.474056	1.402910	1.068953	1657.479000
16.457232	1.391565	1.067802	1657.979000
16.434490	1.379770	1.066706	1658.479000
16.415427	1.367766	1.065638	1658.979000
16.395178	1.355401	1.064388	1659.479000
16.373312	1.342722	1.062879	1659.979000
16.358740	1.329624	1.061461	1660.479000
16.336060	1.316007	1.060013	1660.980000
16.310892	1.302154	1.058784	1661.479000
16.293844	1.288157	1.057587	1661.979000
16.277621	1.273811	1.056539	1662.479000
16.262409	1.258819	1.055460	1662.979000
16.242882	1.243124	1.054124	1663.479000
16.217249	1.227835	1.052802	1663.979000
16.203494	1.212221	1.051581	1664.479000
16.184351	1.196669	1.050384	1664.979000
16.167610	1.180607	1.049307	1665.479000
16.141408	1.164422	1.048388	1665.979000
16.130116	1.147735	1.047255	1666.479000
16.108177	1.130895	1.046128	1666.979000
16.088279	1.113833	1.045023	1667.479000
16.068349	1.096614	1.043838	1667.979000
16.053166	1.079025	1.042712	1668.479000
16.035472	1.060895	1.041796	1668.979000
16.018668	1.042514	1.040705	1669.479000
15.993735	1.023505	1.039608	1669.979000
15.976440	1.004405	1.038479	1670.479000
15.959460	0.984795	1.037367	1670.979000
15.934867	0.964511	1.036180	1671.479000
15.921499	0.943708	1.034897	1671.979000
15.902172	0.922677	1.033497	1672.479000
15.883992	0.901227	1.032251	1672.980000
15.869009	0.879291	1.031062	1673.479000
15.849518	0.857273	1.030047	1673.979000
15.826831	0.834793	1.029012	1674.479000
15.808014	0.812159	1.028083	1674.979000
15.784836	0.789117	1.027254	1675.479000
15.768747	0.765402	1.026412	1675.979000
15.751363	0.741164	1.025708	1676.479000
15.733058	0.716776	1.024902	1676.979000
15.712150	0.691998	1.023981	1677.479000
15.691913	0.667148	1.023069	1677.979000
15.674210	0.641897	1.022328	1678.479000
15.656064	0.616398	1.021452	1678.979000
15.636780	0.590932	1.020623	1679.479000
15.616653	0.565635	1.019971	1679.979000
15.597428	0.540680	1.019345	1680.480000
15.578891	0.515908	1.018806	1680.980000
15.559529	0.491914	1.018304	1681.480000
15.539459	0.468649	1.017619	1681.979000
15.520755	0.446183	1.016901	1682.479000
15.504399	0.424672	1.016321	1682.979000
15.484240	0.404076	1.015870	1683.479000
15.463181	0.384395	1.015661	1683.979000
15.444736	0.365658	1.015507	1684.479000
15.426178	0.348140	1.015336	1684.979000
15.410440	0.331664	1.015134	1685.479000
15.389420	0.316615	1.014899	1685.979000
15.365844	0.303222	1.014746	1686.479000
15.341849	0.290774	1.014634	1686.979000
15.328278	0.279127	1.014424	1687.479000
15.311222	0.268538	1.014215	1687.979000
15.294736	0.259204	1.014102	1688.479000
15.275903	0.251505	1.014033	1688.979000
15.257755	0.245127	1.014032	1689.479000
15.240564	0.240268	1.013950	1689.979000
15.216541	0.236913	1.013776	1690.479000
15.202660	0.235413	1.013812	1690.979000
15.184684	0.235504	1.013839	1691.479000
15.165651	0.236920	1.013741	1691.979000
15.143103	0.240009	1.013664	1692.479000
15.127347	0.244722	1.013572	1692.979000
15.107367	0.251100	1.013537	1693.479000
15.085898	0.258760	1.013425	1693.979000
15.066745	0.267917	1.013419	1694.479000
15.054236	0.278632	1.013328	1694.979000
15.031415	0.290884	1.013068	1695.479000
15.010707	0.304382	1.012721	1695.980000
14.988105	0.318914	1.012343	1696.479000
14.975654	0.334628	1.011951	1696.979000
14.957635	0.351043	1.011537	1697.479000
14.939708	0.368040	1.011074	1697.979000
14.914261	0.385309	1.010617	1698.479000
14.898770	0.402327	1.010006	1698.979000
14.880450	0.419269	1.009357	1699.480000
14.857883	0.436338	1.008725	1699.979000
14.839297	0.453365	1.008091	1700.479000
14.816345	0.470209	1.007246	1700.979000
14.801397	0.486652	1.006141	1701.479000
14.784257	0.502552	1.004890	1701.979000
14.765751	0.517996	1.003679	1702.479000
14.741113	0.533318	1.002462	1702.979000
14.723959	0.548358	1.001241	1703.479000
14.710742	0.562971	1.000078	1703.979000
14.691113	0.577108	0.998705	1704.479000
14.671933	0.590984	0.997168	1704.979000
14.651327	0.604449	0.995334	1705.479000
14.630350	0.617562	0.993566	1705.979000
14.607585	0.630614	0.992043	1706.479000
14.593007	0.643360	0.990477	1706.980000
14.574019	0.655847	0.988789	1707.479000
14.549885	0.667705	0.987052	1707.979000
14.529038	0.679535	0.985350	1708.479000
14.508438	0.691202	0.983597	1708.979000
14.489258	0.702782	0.981879	1709.479000
14.472364	0.714739	0.980072	1709.979000
14.453427	0.726731	0.978157	1710.479000
14.434924	0.738367	0.976326	1710.979000
14.420095	0.749453	0.974407	1711.479000
14.401742	0.760023	0.972595	1711.979000
14.383756	0.770106	0.970835	1712.479000
14.365836	0.780013	0.969039	1712.979000
14.346057	0.789613	0.967259	1713.479000
14.327283	0.798909	0.965623	1713.979000
14.308286	0.808273	0.964036	1714.479000
14.287127	0.817690	0.962501	1714.980000
14.267035	0.826832	0.960976	1715.479000
14.242490	0.835658	0.959363	1715.980000
14.220564	0.844598	0.957599	1716.479000
14.200387	0.853894	0.955688	1716.979000
14.183640	0.863357	0.953874	1717.479000
14.161876	0.872904	0.952111	1717.979000
14.141306	0.882675	0.950219	1718.479000
14.124539	0.891884	0.948396	1718.979000
14.104541	0.900533	0.946457	1719.479000
14.086047	0.909189	0.944495	1719.979000
14.065475	0.917970	0.942656	1720.479000
14.045213	0.926793	0.940972	1720.979000
14.028398	0.935579	0.939476	1721.480000
14.010819	0.944464	0.937931	1721.979000
13.990413	0.953694	0.936173	1722.480000
13.971363	0.963063	0.934463	1722.979000
13.953131	0.972074	0.932645	1723.479000
13.935142	0.981099	0.930853	1723.980000
13.915627	0.990111	0.929208	1724.479000
13.894073	0.998876	0.927573	1724.979000
13.874091	1.007514	0.925791	1725.479000
13.855907	1.016439	0.924323	1725.979000
13.834831	1.025173	0.922768	1726.479000
13.814905	1.033714	0.921220	1726.979000
13.793686	1.042049	0.919700	1727.479000
13.778485	1.050183	0.918172	1727.979000
13.760187	1.058565	0.916508	1728.479000
13.739954	1.066586	0.914890	1728.979000
13.722144	1.074491	0.913280	1729.479000
13.701736	1.082398	0.911616	1729.979000
13.683279	1.089858	0.909905	1730.479000
13.661819	1.096484	0.908228	1730.979000
13.641059	1.102942	0.906578	1731.479000
13.622595	1.109393	0.904978	1731.979000
13.603671	1.115967	0.903493	1732.480000
13.584943	1.122376	0.902110	1732.980000
13.565287	1.128674	0.900742	1733.479000
13.547464	1.134698	0.899309	1733.979000
13.528290	1.140244	0.897815	1734.479000
13.509525	1.145428	0.896258	1734.979000
13.491620	1.150482	0.894772	1735.479000
13.471596	1.155512	0.893282	1735.979000
13.451550	1.160083	0.891768	1736.479000
13.433330	1.164481	0.890265	1736.980000
13.414307	1.168477	0.888881	1737.479000
13.394919	1.172151	0.887497	1737.979000
13.375815	1.175386	0.886203	1738.479000
13.359232	1.178675	0.884874	1738.979000
13.340257	1.181928	0.883508	1739.480000
13.321348	1.184869	0.882049	1739.979000
13.302883	1.187135	0.880698	1740.480000
13.284048	1.189121	0.879322	1740.979000
13.263247	1.191111	0.877840	1741.479000
13.244858	1.193259	0.876448	1741.979000
13.224365	1.195388	0.874902	1742.480000
13.203589	1.197139	0.873508	1742.979000
13.185486	1.198297	0.872076	1743.479000
13.165292	1.199119	0.870494	1743.979000
13.147931	1.199838	0.868972	1744.479000
13.132155	1.200546	0.867534	1744.980000
13.114368	1.201124	0.866174	1745.479000
13.094956	1.201469	0.864802	1745.979000
13.071650	1.201432	0.863408	1746.479000
13.050661	1.201230	0.862000	1746.979000
13.032754	1.200840	0.860563	1747.480000
13.016484	1.200265	0.859199	1747.979000
12.995837	1.199477	0.857820	1748.479000
12.974673	1.198579	0.856475	1748.979000
12.952927	1.197349	0.855189	1749.480000
12.934666	1.196101	0.853887	1749.979000
12.913908	1.194570	0.852538	1750.479000
12.899398	1.192552	0.851249	1750.979000
12.878003	1.189989	0.849910	1751.479000
12.861248	1.187457	0.848554	1751.979000
12.840685	1.185115	0.847194	1752.479000
12.824957	1.182440	0.845769	1752.979000
12.807233	1.178970	0.844488	1753.479000
12.786420	1.175533	0.843141	1753.979000
12.766755	1.172410	0.841776	1754.479000
12.747755	1.169105	0.840672	1754.980000
12.728518	1.165318	0.839485	1755.479000
12.712242	1.160970	0.838236	1755.979000
12.694301	1.156619	0.837116	1756.479000
12.672794	1.151984	0.835843	1756.980000
12.654868	1.147121	0.834656	1757.479000
12.636332	1.142030	0.833424	1757.980000
12.617294	1.136666	0.832010	1758.480000
12.598106	1.131008	0.830576	1758.979000
12.577893	1.125233	0.828987	1759.479000
12.559850	1.119463	0.827457	1759.979000
12.541112	1.113230	0.826092	1760.479000
12.524005	1.106447	0.824876	1760.979000
12.508064	1.099811	0.823816	1761.479000
12.489447	1.093261	0.822575	1761.979000
12.469257	1.086087	0.821351	1762.480000
12.445111	1.078405	0.820033	1762.979000
12.425595	1.070784	0.818710	1763.479000
12.406461	1.062816	0.817513	1763.980000
12.389571	1.054742	0.816359	1764.479000
12.369156	1.046061	0.815164	1764.979000
12.351041	1.036741	0.813969	1765.479000
12.331431	1.027226	0.812685	1765.979000
12.314225	1.017875	0.811453	1766.479000
12.292383	1.007783	0.810069	1766.979000
12.272500	0.997184	0.808748	1767.479000
12.254802	0.986277	0.807428	1767.980000
12.238784	0.975295	0.806189	1768.479000
12.214999	0.963965	0.805052	1768.979000
12.198573	0.952282	0.803960	1769.480000
12.178050	0.940285	0.802665	1769.979000
12.162663	0.927851	0.801409	1770.479000
12.136205	0.915044	0.800052	1770.979000
12.115969	0.901913	0.798911	1771.479000
12.092710	0.888301	0.797689	1771.979000
12.075136	0.874173	0.796455	1772.479000
12.057388	0.859724	0.795265	1772.979000
12.040595	0.844414	0.794052	1773.479000
12.018799	0.828700	0.792806	1773.979000
12.000508	0.813079	0.791587	1774.479000
11.978899	0.797258	0.790259	1774.979000
11.964510	0.780873	0.789019	1775.479000
11.941309	0.764240	0.787925	1775.979000
11.924263	0.747599	0.786816	1776.479000
11.905733	0.730440	0.785868	1776.979000
11.887117	0.712638	0.784843	1777.479000
11.866380	0.694413	0.783746	1777.980000
11.852609	0.675476	0.782634	1778.480000
11.825118	0.656445	0.781564	1778.979000
11.802440	0.637265	0.780563	1779.479000
11.783368	0.617601	0.779622	1779.979000
11.767279	0.597479	0.778694	1780.479000
11.751204	0.577315	0.777676	1780.979000
11.736359	0.556890	0.776513	1781.479000
11.717836	0.536621	0.775578	1781.979000
11.692865	0.516616	0.774698	1782.479000
11.674013	0.496690	0.773755	1782.979000
11.657285	0.476628	0.772783	1783.479000
11.637308	0.456831	0.771843	1783.979000
11.620632	0.437394	0.771076	1784.479000
11.603454	0.418293	0.770321	1784.979000
11.586474	0.400059	0.769650	1785.479000
11.562647	0.382752	0.768912	1785.979000
11.553005	0.366521	0.768260	1786.479000
11.527992	0.351060	0.767613	1786.979000
11.506261	0.336864	0.767082	1787.479000
11.489594	0.323904	0.766506	1787.979000
11.472451	0.312224	0.765960	1788.479000
11.449222	0.301883	0.765512	1788.980000
11.434130	0.293278	0.765069	1789.479000
11.415914	0.286255	0.764539	1789.979000
11.391502	0.280664	0.763986	1790.479000
11.379510	0.276847	0.763495	1790.979000
11.354795	0.274331	0.762969	1791.479000
11.336326	0.273142	0.762585	1791.979000
11.315553	0.273776	0.762290	1792.480000
11.296428	0.276248	0.761950	1792.979000
11.278660	0.280654	0.761681	1793.479000
11.259772	0.286548	0.761338	1793.979000
11.241081	0.293509	0.760863	1794.479000
11.221198	0.301556	0.760155	1794.979000
11.197547	0.310438	0.759580	1795.479000
11.180482	0.320280	0.759001	1795.979000
11.157306	0.331027	0.758510	1796.479000
11.137521	0.342221	0.757990	1796.979000
11.119985	0.353788	0.757336	1797.479000
11.105021	0.365866	0.756344	1797.979000
11.090183	0.378281	0.755234	1798.479000
11.068948	0.390623	0.753904	1798.979000
11.037946	0.402604	0.752635	1799.479000
11.024565	0.414003	0.751481	1799.979000
11.005425	0.425230	0.750165	1800.479000
10.988955	0.436574	0.748832	1800.979000
10.971670	0.447853	0.747479	1801.479000
10.953025	0.458956	0.746003	1801.979000
10.930745	0.469694	0.744303	1802.479000
10.906955	0.480400	0.742681	1802.979000
10.891228	0.491261	0.741047	1803.480000
10.873612	0.501954	0.739536	1803.979000
10.848566	0.512099	0.738057	1804.479000
10.832127	0.521873	0.736632	1804.979000
10.816869	0.531657	0.735039	1805.479000
10.803357	0.541229	0.733468	1805.979000
10.786224	0.550616	0.731936	1806.479000
10.761211	0.559716	0.730279	1806.979000
10.744151	0.568945	0.728456	1807.479000
10.720764	0.577529	0.726730	1807.979000
10.701814	0.585900	0.725119	1808.479000
10.684985	0.594253	0.723520	1808.979000
10.668354	0.602504	0.721814	1809.479000
10.653167	0.610533	0.720158	1809.979000
10.628861	0.618324	0.718423	1810.479000
10.609719	0.626021	0.716943	1810.979000
10.598993	0.633544	0.715556	1811.479000
10.578212	0.640856	0.714128	1811.979000
10.554791	0.647993	0.712624	1812.479000
10.539347	0.654913	0.711109	1812.979000
10.522352	0.662057	0.709611	1813.480000
10.500130	0.669017	0.708276	1813.979000
10.485562	0.676164	0.706728	1814.479000
10.470599	0.683201	0.705064	1814.979000
10.450648	0.689977	0.703496	1815.479000
10.422753	0.696262	0.701819	1815.979000
10.406531	0.702312	0.700208	1816.479000
10.393075	0.708654	0.698718	1816.979000
10.369656	0.714837	0.697388	1817.479000
10.352016	0.720733	0.696068	1817.979000
10.335940	0.726676	0.694623	1818.479000
10.316069	0.732196	0.693160	1818.979000
10.293500	0.737305	0.691759	1819.479000
10.274135	0.742113	0.690335	1819.979000
10.255952	0.746486	0.688863	1820.479000
10.237907	0.750832	0.687489	1820.979000
10.218817	0.755043	0.686085	1821.480000
10.196422	0.758794	0.684689	1821.979000
10.174831	0.762424	0.683139	1822.480000
10.157359	0.765724	0.681614	1822.979000
10.136149	0.768384	0.680106	1823.480000
10.118927	0.770396	0.678443	1823.979000
10.105376	0.771997	0.676884	1824.479000
10.081566	0.773100	0.675379	1824.980000
10.065738	0.773833	0.673825	1825.479000
10.048207	0.774081	0.672281	1825.979000
10.026618	0.773882	0.670964	1826.479000
10.007066	0.773223	0.669739	1826.980000
9.986050	0.772635	0.668423	1827.479000
9.965156	0.771649	0.667030	1827.979000
9.945339	0.769755	0.665623	1828.479000
9.926419	0.767218	0.664092	1828.980000
9.914142	0.764136	0.662631	1829.479000
9.898436	0.760705	0.661319	1829.979000
9.877973	0.756923	0.660052	1830.479000
9.855768	0.752922	0.658798	1830.979000
9.832148	0.748740	0.657548	1831.479000
9.816529	0.744061	0.656325	1831.979000
9.794531	0.738578	0.655150	1832.479000
9.775997	0.732592	0.653737	1832.979000
9.758067	0.726125	0.652406	1833.480000
9.736626	0.719270	0.650879	1833.979000
9.717742	0.711708	0.649342	1834.479000
9.699652	0.703515	0.648171	1834.980000
9.674094	0.694815	0.647042	1835.479000
9.657472	0.685411	0.645914	1835.979000
9.636121	0.675234	0.644659	1836.479000
9.620904	0.664356	0.643357	1836.979000
9.603493	0.653090	0.642189	1837.479000
9.580285	0.641551	0.640833	1837.979000
9.556651	0.629685	0.639417	1838.479000
9.539421	0.617276	0.638185	1838.980000
9.520153	0.604294	0.637011	1839.479000
9.501503	0.590827	0.636018	1839.979000
9.485589	0.577134	0.634886	1840.479000
9.467125	0.562981	0.633745	1840.979000
9.449628	0.548585	0.632693	1841.479000
9.431629	0.534158	0.631678	1841.979000
9.407497	0.519342	0.630689	1842.479000
9.389763	0.504073	0.629713	1842.979000
9.368623	0.488543	0.628781	1843.480000
9.348887	0.472885	0.627758	1843.979000
9.329483	0.457184	0.626664	1844.479000
9.311668	0.441205	0.625547	1844.979000
9.292703	0.425507	0.624374	1845.479000
9.275420	0.410541	0.623176	1845.979000
9.255792	0.396215	0.622194	1846.479000
9.235901	0.382063	0.621269	1846.979000
9.218954	0.368233	0.620230	1847.479000
9.200002	0.355047	0.619372	1847.979000
9.181021	0.343160	0.618610	1848.479000
9.161228	0.332521	0.617877	1848.980000
9.143118	0.323138	0.617131	1849.479000
9.125900	0.315202	0.616568	1849.980000
9.107383	0.308413	0.616054	1850.479000
9.088159	0.302979	0.615401	1850.979000
9.068636	0.299007	0.614607	1851.479000
9.050263	0.296344	0.613794	1851.979000
9.031985	0.294952	0.613210	1852.479000
9.015761	0.295109	0.612666	1852.979000
8.998387	0.296547	0.611986	1853.479000
8.978821	0.298824	0.611120	1853.979000
8.958495	0.302094	0.610378	1854.479000
8.939824	0.306414	0.609755	1854.979000
8.921603	0.311766	0.609012	1855.479000
8.904935	0.317791	0.608130	1855.979000
8.885697	0.324654	0.607273	1856.479000
8.866164	0.332124	0.606339	1856.979000
8.849306	0.339973	0.605194	1857.479000
8.831933	0.348105	0.603974	1857.979000
8.812336	0.356048	0.602822	1858.479000
8.792919	0.364004	0.601674	1858.979000
8.772011	0.372376	0.600575	1859.479000
8.753490	0.380869	0.599402	1859.979000
8.733542	0.389623	0.598230	1860.479000
8.715774	0.398491	0.597004	1860.979000
8.697412	0.407059	0.595594	1861.480000
8.678470	0.415460	0.593959	1861.979000
8.659493	0.423455	0.592293	1862.480000
8.640648	0.431131	0.590669	1862.979000
8.620451	0.438918	0.589221	1863.479000
8.601796	0.446718	0.587704	1863.979000
8.582806	0.453952	0.586232	1864.480000
8.564230	0.461260	0.584731	1864.979000
8.547079	0.468717	0.583110	1865.479000
8.528241	0.476197	0.581580	1865.979000
8.508420	0.483119	0.580223	1866.479000
8.492049	0.489482	0.578713	1866.979000
8.470716	0.495490	0.577200	1867.479000
8.451684	0.501255	0.575691	1867.980000
8.432307	0.506844	0.574259	1868.479000
8.411995	0.512261	0.572772	1868.979000
8.392187	0.517290	0.571232	1869.479000
8.372537	0.521720	0.569698	1869.979000
8.353876	0.525821	0.568287	1870.479000
8.334332	0.530010	0.566671	1870.979000
8.318216	0.534071	0.565035	1871.480000
8.297907	0.537724	0.563482	1871.979000
8.277844	0.540913	0.561825	1872.480000
8.258274	0.543685	0.560358	1872.979000
8.241118	0.545958	0.558946	1873.479000
8.223815	0.548017	0.557616	1873.979000
8.204119	0.549181	0.556181	1874.479000
8.184463	0.549488	0.554726	1874.979000
8.165210	0.549090	0.553345	1875.479000
8.145541	0.548413	0.551984	1875.979000
8.123975	0.547429	0.550551	1876.479000
8.106851	0.546125	0.549056	1876.979000
8.086577	0.544281	0.547736	1877.479000
8.068565	0.541682	0.546361	1877.980000
8.051397	0.538211	0.544985	1878.479000
8.032485	0.533989	0.543870	1878.980000
8.012900	0.529240	0.542748	1879.479000
7.993536	0.523655	0.541641	1879.979000
7.972025	0.517655	0.540440	1880.479000
7.951511	0.511081	0.539188	1880.979000
7.930879	0.503518	0.537774	1881.479000
7.911321	0.495031	0.536178	1881.979000
7.893895	0.486115	0.534784	1882.479000
7.874468	0.477027	0.533617	1882.979000
7.854908	0.467482	0.532574	1883.479000
7.837632	0.457421	0.531529	1883.979000
7.819258	0.446810	0.530147	1884.480000
7.800097	0.435925	0.528695	1884.979000
7.778392	0.424907	0.527610	1885.480000
7.758776	0.413726	0.526496	1885.979000
7.739957	0.402374	0.525537	1886.479000
7.719642	0.391205	0.524619	1886.979000
7.700721	0.380259	0.523756	1887.479000
7.683174	0.369590	0.522762	1887.979000
7.668123	0.359098	0.521742	1888.479000
7.650059	0.349284	0.520614	1888.979000
7.630537	0.340285	0.519494	1889.479000
7.612085	0.332166	0.518395	1889.979000
7.593518	0.324906	0.517469	1890.479000
7.575782	0.318437	0.516723	1890.980000
7.558130	0.313376	0.515842	1891.479000
7.539117	0.309671	0.515082	1891.979000
7.521156	0.307072	0.514406	1892.480000
7.502142	0.305575	0.513775	1892.979000
7.483681	0.305054	0.512997	1893.479000
7.465018	0.305685	0.512139	1893.979000
7.447091	0.307245	0.511089	1894.479000
7.430358	0.309542	0.510067	1894.979000
7.410464	0.312635	0.509004	1895.479000
7.393500	0.316482	0.507992	1895.979000
7.373291	0.321164	0.506861	1896.479000
7.354384	0.326126	0.505562	1896.980000
7.335828	0.331650	0.504431	1897.479000
7.319027	0.337580	0.503301	1897.979000
7.301277	0.344168	0.502204	1898.479000
7.283543	0.351033	0.501104	1898.979000
7.265395	0.357766	0.499939	1899.479000
7.247961	0.364285	0.498684	1899.980000
7.231703	0.370632	0.497206	1900.479000
7.213663	0.376743	0.495770	1900.979000
7.195932	0.382721	0.494449	1901.479000
7.177060	0.388658	0.493121	1901.979000
7.157890	0.394472	0.491931	1902.479000
7.140826	0.400004	0.490595	1902.979000
7.121367	0.405290	0.489165	1903.479000
7.100970	0.409940	0.487578	1903.979000
7.082430	0.414140	0.486100	1904.480000
7.060858	0.417863	0.484821	1904.979000
7.042383	0.421403	0.483578	1905.479000
7.024582	0.424684	0.482289	1905.979000
7.005508	0.428043	0.480749	1906.479000
6.986509	0.431118	0.479066	1906.979000
6.970566	0.433670	0.477475	1907.479000
6.951295	0.435645	0.476022	1907.979000
6.930719	0.436898	0.474650	1908.479000
6.910881	0.437733	0.473276	1908.980000
6.895063	0.437798	0.471964	1909.479000
6.877779	0.437449	0.470752	1909.980000
6.857459	0.436611	0.469453	1910.479000
6.845187	0.435065	0.468013	1910.979000
6.829062	0.432884	0.466678	1911.479000
6.806903	0.429786	0.465319	1911.980000
6.784879	0.425707	0.464092	1912.479000
6.765319	0.421253	0.463050	1912.979000
6.753421	0.416457	0.462008	1913.479000
6.733128	0.411196	0.460800	1913.979000
6.718250	0.405266	0.459485	1914.479000
6.699817	0.399339	0.458148	1914.979000
6.679831	0.393202	0.456945	1915.479000
6.661716	0.386674	0.455843	1915.979000
6.639864	0.379869	0.454845	1916.480000
6.625098	0.372894	0.453953	1916.979000
6.607190	0.365527	0.453069	1917.479000
6.592757	0.358314	0.451950	1917.979000
6.572463	0.351571	0.450878	1918.479000
6.555649	0.345021	0.449712	1918.979000
6.542093	0.338712	0.448495	1919.479000
6.524673	0.332907	0.447379	1919.979000
6.509702	0.327372	0.446456	1920.479000
6.489246	0.323014	0.445447	1920.979000
6.463611	0.319741	0.444509	1921.479000
6.442334	0.317274	0.443685	1921.979000
6.426752	0.315145	0.442891	1922.479000
6.414056	0.313663	0.442140	1922.979000
6.394640	0.312991	0.441227	1923.479000
6.377370	0.313723	0.440279	1923.979000
6.353032	0.315343	0.439280	1924.480000
6.335679	0.316933	0.438202	1924.979000
6.318994	0.319009	0.437104	1925.479000
6.303668	0.321671	0.435984	1925.979000
6.290398	0.325272	0.434804	1926.480000
6.270980	0.329097	0.433556	1926.979000
6.256479	0.333604	0.432322	1927.479000
6.236647	0.337254	0.431160	1927.979000
6.218395	0.341270	0.429944	1928.479000
6.196405	0.345930	0.428766	1928.979000
6.174072	0.350962	0.427601	1929.479000
6.155396	0.355694	0.426284	1929.979000
6.140286	0.360012	0.424819	1930.479000
6.126736	0.363965	0.423461	1930.979000
6.106036	0.367677	0.422286	1931.479000
6.083133	0.371201	0.421093	1931.979000
6.074099	0.374594	0.419859	1932.480000
6.058324	0.377326	0.418614	1932.979000
6.040163	0.379469	0.417262	1933.479000
6.017984	0.381244	0.415887	1933.979000
5.997360	0.382189	0.414526	1934.479000
5.982434	0.382796	0.413254	1934.979000
5.957736	0.382846	0.412086	1935.479000
5.935794	0.382320	0.411024	1935.979000
5.919324	0.381176	0.409868	1936.479000
5.902640	0.379284	0.408602	1936.979000
5.881512	0.377089	0.407340	1937.479000
5.857665	0.374656	0.406047	1937.979000
5.836394	0.371235	0.404651	1938.479000
5.817998	0.366863	0.403223	1938.979000
5.800347	0.362126	0.401862	1939.479000
5.783118	0.356995	0.400526	1939.979000
5.766849	0.351931	0.399151	1940.479000
5.749122	0.346615	0.397806	1940.980000
5.730798	0.341634	0.396578	1941.479000
5.714523	0.336984	0.395419	1941.979000
5.696844	0.332780	0.394368	1942.479000
5.676227	0.328761	0.393530	1942.979000
5.656447	0.325362	0.392700	1943.479000
5.637284	0.322747	0.391666	1943.979000
5.623040	0.320658	0.390447	1944.480000
5.605773	0.319152	0.389276	1944.979000
5.591844	0.318303	0.388281	1945.480000
5.574242	0.318381	0.387155	1945.979000
5.553794	0.319149	0.385990	1946.479000
5.536912	0.320416	0.384895	1946.979000
5.519295	0.322211	0.383719	1947.479000
5.501018	0.324577	0.382664	1947.979000
5.481748	0.327137	0.381588	1948.479000
5.467896	0.329731	0.380375	1948.979000
5.449985	0.332574	0.379316	1949.479000
5.429993	0.335738	0.378271	1949.979000
5.402911	0.338937	0.377155	1950.479000
5.378314	0.342069	0.376000	1950.979000
5.357937	0.344972	0.374910	1951.479000
5.340107	0.347923	0.373668	1951.979000
5.324294	0.350649	0.372287	1952.479000
5.314403	0.353067	0.370716	1952.980000
5.299972	0.354414	0.369307	1953.479000
5.283207	0.355253	0.367917	1953.979000
5.260498	0.355513	0.366553	1954.479000
5.242282	0.355635	0.365197	1954.979000
5.224542	0.355413	0.363785	1955.480000
5.206125	0.354490	0.362356	1955.979000
5.186441	0.352842	0.361064	1956.479000
5.163531	0.350986	0.359874	1956.979000
5.146212	0.348614	0.358793	1957.479000
5.129578	0.345532	0.357678	1957.980000
5.112941	0.342305	0.356565	1958.479000
5.094998	0.339140	0.355655	1958.980000
5.076070	0.336334	0.354801	1959.479000
5.058347	0.333408	0.353727	1959.979000
5.037009	0.330473	0.352386	1960.479000
5.019180	0.328150	0.350908	1960.979000
5.001355	0.326629	0.349680	1961.479000
4.980843	0.325358	0.348623	1961.980000
4.961978	0.324256	0.347501	1962.479000
4.943729	0.323663	0.346330	1962.979000
4.924284	0.323649	0.345145	1963.479000
4.905076	0.324420	0.343998	1963.979000
4.889832	0.325593	0.342781	1964.479000
4.866467	0.327289	0.341678	1964.979000
4.846765	0.329498	0.340681	1965.479000
4.829860	0.332171	0.339516	1965.979000
4.808198	0.334666	0.338387	1966.480000
4.781967	0.336984	0.337214	1966.979000
4.761788	0.339366	0.336175	1967.479000
4.741395	0.341437	0.334949	1967.980000
4.725334	0.343001	0.333661	1968.479000
4.706418	0.343904	0.332179	1968.979000
4.685971	0.344210	0.330506	1969.479000
4.666089	0.344297	0.328888	1969.979000
4.647675	0.343854	0.327489	1970.479000
4.630196	0.342607	0.326026	1970.980000
4.611858	0.341231	0.324773	1971.479000
4.593493	0.339678	0.323538	1971.979000
4.573384	0.337815	0.322225	1972.479000
4.556649	0.335921	0.320925	1972.979000
4.539478	0.333889	0.319747	1973.479000
4.520493	0.331822	0.318563	1973.979000
4.501261	0.330202	0.317441	1974.480000
4.481412	0.329386	0.316409	1974.979000
4.462915	0.328920	0.315270	1975.479000
4.444477	0.328432	0.314195	1975.979000
4.426625	0.328541	0.313193	1976.479000
4.409072	0.329204	0.312114	1976.979000
4.389730	0.330160	0.310763	1977.479000
4.369481	0.331457	0.309495	1977.979000
4.350311	0.332979	0.308254	1978.479000
4.331198	0.334846	0.306925	1978.979000
4.313477	0.336558	0.305492	1979.479000
4.296106	0.338045	0.304124	1979.979000
4.278613	0.339334	0.302908	1980.479000
4.259191	0.340369	0.301512	1980.980000
4.240471	0.341280	0.300111	1981.479000
4.222462	0.341751	0.298869	1981.979000
4.204736	0.341560	0.297670	1982.479000
4.187194	0.340795	0.296691	1982.980000
4.169556	0.339693	0.295562	1983.479000
4.151301	0.338585	0.294331	1983.979000
4.132510	0.337289	0.293038	1984.479000
4.113989	0.336144	0.291823	1984.979000
4.093387	0.335076	0.290755	1985.479000
4.073700	0.334463	0.289693	1985.979000
4.053439	0.333992	0.288585	1986.479000
4.036067	0.333750	0.287410	1986.979000
4.020394	0.334156	0.286212	1987.480000
4.002920	0.334521	0.285015	1987.979000
3.984929	0.335223	0.283880	1988.479000
3.966968	0.336176	0.282640	1988.979000
3.947864	0.337236	0.281432	1989.479000
3.930399	0.338333	0.280240	1989.979000
3.910887	0.339455	0.278973	1990.479000
3.892412	0.340441	0.277689	1990.979000
3.875497	0.341458	0.276478	1991.479000
3.857739	0.342064	0.275253	1991.979000
3.840235	0.342525	0.273951	1992.479000
3.820871	0.342394	0.272574	1992.980000
3.802781	0.341691	0.271266	1993.479000
3.785103	0.340945	0.270039	1993.979000
3.766275	0.340084	0.268817	1994.479000
3.748831	0.339396	0.267892	1994.979000
3.730396	0.339031	0.266756	1995.479000
3.711457	0.338902	0.265545	1995.979000
3.693060	0.339194	0.264429	1996.479000
3.675877	0.339612	0.263325	1996.979000
3.658356	0.340193	0.262245	1997.479000
3.640057	0.341074	0.261065	1997.979000
3.622159	0.342067	0.259753	1998.479000
3.601952	0.342793	0.258532	1998.979000
3.581762	0.343439	0.257266	1999.479000
3.562589	0.343966	0.255979	1999.979000
3.544302	0.344614	0.254827	2000.479000
3.527158	0.344796	0.253737	2000.979000
3.509518	0.344788	0.252631	2001.479000
3.489525	0.344955	0.251626	2001.979000
3.470869	0.345157	0.250497	2002.479000
3.453011	0.344972	0.249312	2002.980000
3.437382	0.344689	0.247964	2003.479000
3.417296	0.344685	0.246599	2003.979000
3.399026	0.344972	0.245243	2004.479000
3.378293	0.345114	0.243948	2004.979000
3.361295	0.345770	0.242706	2005.479000
3.345011	0.346674	0.241501	2005.979000
3.325622	0.347830	0.240309	2006.480000
3.307304	0.348595	0.239205	2006.979000
3.288889	0.349146	0.238140	2007.479000
3.271252	0.349557	0.237145	2007.979000
3.255044	0.349924	0.236007	2008.479000
3.237224	0.350102	0.234676	2008.979000
3.219486	0.350326	0.233330	2009.479000
3.201620	0.350584	0.232183	2009.979000
3.183032	0.351063	0.231049	2010.479000
3.165111	0.351379	0.229874	2010.980000
3.146834	0.351800	0.228717	2011.479000
3.128162	0.352174	0.227501	2011.979000
3.110801	0.352557	0.226347	2012.479000
3.095056	0.352975	0.225181	2012.979000
3.074111	0.353116	0.223941	2013.479000
3.059712	0.353491	0.222712	2013.980000
3.038397	0.353678	0.221599	2014.480000
3.016715	0.353759	0.220458	2014.979000
2.997876	0.353828	0.219373	2015.479000
2.979347	0.354203	0.218236	2015.979000
2.959241	0.354844	0.217038	2016.480000
2.942427	0.355385	0.215726	2016.979000
2.924056	0.355917	0.214349	2017.480000
2.907817	0.356476	0.213140	2017.979000
2.891224	0.357296	0.212146	2018.480000
2.872259	0.358129	0.211146	2018.979000
2.851962	0.358753	0.209930	2019.479000
2.833011	0.359183	0.208656	2019.979000
2.815489	0.359791	0.207432	2020.479000
2.798974	0.360268	0.206102	2020.979000
2.780750	0.360433	0.204688	2021.479000
2.762932	0.360598	0.203357	2021.979000
2.744711	0.361070	0.202274	2022.479000
2.727086	0.361789	0.201250	2022.980000
2.709642	0.362219	0.200243	2023.479000
2.688745	0.362738	0.199056	2023.979000
2.670080	0.363091	0.197643	2024.479000
2.653114	0.363381	0.196464	2024.979000
2.637341	0.364025	0.195235	2025.479000
2.618769	0.364582	0.193980	2025.979000
2.600451	0.365171	0.192839	2026.479000
2.584726	0.365772	0.191519	2026.979000
2.566388	0.366247	0.190267	2027.480000
2.550099	0.366713	0.189054	2027.979000
2.533696	0.367112	0.187879	2028.479000
2.517679	0.367811	0.186853	2028.979000
2.500711	0.368327	0.185794	2029.479000
2.483221	0.368787	0.184818	2029.979000
2.466181	0.369370	0.183797	2030.479000
2.447360	0.369931	0.182697	2030.979000
2.427663	0.370506	0.181398	2031.479000
2.409450	0.371267	0.180095	2031.979000
2.391786	0.371978	0.178754	2032.479000
2.374435	0.372678	0.177821	2032.980000
2.357109	0.373256	0.176927	2033.479000
2.340269	0.373690	0.175841	2033.979000
2.321626	0.374419	0.174683	2034.479000
2.303541	0.374944	0.173496	2034.979000
2.286552	0.375293	0.172215	2035.480000
2.269137	0.375676	0.170832	2035.979000
2.252856	0.376010	0.169553	2036.479000
2.234969	0.376736	0.168371	2036.979000
2.216907	0.377439	0.167145	2037.479000
2.199162	0.378419	0.166033	2037.979000
2.181474	0.379158	0.165124	2038.479000
2.164311	0.379584	0.164058	2038.979000
2.145860	0.380005	0.162946	2039.480000
2.127311	0.380330	0.161713	2039.979000
2.109755	0.380696	0.160385	2040.479000
2.093606	0.381126	0.159244	2040.979000
2.074383	0.381765	0.158035	2041.479000
2.056635	0.382647	0.156812	2041.979000
2.037125	0.383470	0.155566	2042.479000
2.016862	0.384264	0.154153	2042.979000
2.001498	0.385223	0.152878	2043.479000
1.984278	0.385979	0.151706	2043.980000
1.973231	0.386839	0.150617	2044.479000
1.954692	0.387981	0.149485	2044.980000
1.938477	0.388754	0.148308	2045.479000
1.917824	0.389176	0.147084	2045.979000
1.896434	0.389431	0.145915	2046.479000
1.879278	0.389839	0.144937	2046.979000
1.863914	0.390351	0.144030	2047.479000
1.847836	0.391065	0.143156	2047.979000
1.829374	0.392096	0.142284	2048.480000
1.815278	0.392807	0.141120	2048.979000
1.793734	0.393341	0.139919	2049.480000
1.776488	0.393948	0.138654	2049.979000
1.763276	0.394823	0.137307	2050.479000
1.745099	0.395717	0.135938	2050.979000
1.725425	0.396256	0.134609	2051.479000
1.707161	0.396795	0.133377	2051.979000
1.690111	0.397479	0.132016	2052.479000
1.674008	0.398268	0.131024	2052.979000
1.655900	0.399233	0.130241	2053.479000
1.635593	0.400037	0.129321	2053.979000
1.618942	0.400870	0.128351	2054.479000
1.601411	0.401855	0.127177	2054.979000
1.585219	0.402707	0.125817	2055.479000
1.567886	0.403463	0.124461	2055.979000
1.552390	0.404024	0.123223	2056.479000
1.535941	0.404723	0.122014	2056.979000
1.513800	0.405696	0.120973	2057.479000
1.497395	0.406527	0.119925	2057.979000
1.478361	0.407253	0.118786	2058.480000
1.461124	0.407798	0.117574	2058.979000
1.443089	0.408341	0.116343	2059.479000
1.427972	0.409066	0.115136	2059.979000
1.411668	0.409953	0.113996	2060.479000
1.396281	0.410908	0.112813	2060.979000
1.384401	0.411917	0.111666	2061.479000
1.358968	0.413070	0.110402	2061.979000
1.340021	0.414059	0.109288	2062.479000
1.323455	0.414840	0.108250	2062.979000
1.313403	0.415584	0.107132	2063.479000
1.294545	0.416210	0.105826	2063.979000
1.279436	0.416784	0.104560	2064.479000
1.261791	0.417692	0.103415	2064.979000
1.253646	0.418712	0.102440	2065.479000
1.235861	0.419658	0.101648	2065.979000
1.209182	0.420505	0.100761	2066.479000
1.200610	0.421197	0.099626	2066.979000
1.176635	0.421921	0.098337	2067.480000
1.152694	0.422940	0.097020	2067.979000
1.133862	0.423656	0.095784	2068.480000
1.114406	0.424276	0.094604	2068.979000
1.097087	0.424887	0.093434	2069.479000
1.082910	0.425826	0.092367	2069.979000
1.069658	0.426774	0.091158	2070.479000
1.051740	0.427727	0.090065	2070.980000
1.038491	0.428639	0.088942	2071.479000
1.022817	0.429861	0.087757	2071.980000
0.996981	0.431424	0.086424	2072.479000
0.978344	0.432657	0.085287	2072.980000
0.960764	0.433434	0.084162	2073.479000
0.939375	0.433938	0.083156	2073.979000
0.923689	0.434382	0.082126	2074.479000
0.905890	0.434778	0.081021	2074.979000
0.884047	0.435219	0.079824	2075.479000
0.865501	0.436872	0.078754	2075.979000
0.856853	0.438831	0.077562	2076.480000
0.829349	0.440930	0.076272	2076.979000
0.809771	0.442785	0.075047	2077.480000
0.794444	0.444011	0.073828	2077.979000
0.780598	0.444696	0.072540	2078.479000
0.764423	0.445660	0.071287	2078.979000
0.743297	0.446808	0.070127	2079.479000
0.719958	0.447007	0.068900	2079.979000
0.707819	0.447104	0.067692	2080.479000
0.688732	0.448071	0.066472	2080.979000
0.664597	0.450228	0.065394	2081.479000
0.647759	0.450951	0.064203	2081.979000
0.631934	0.450784	0.063114	2082.479000
0.613458	0.450771	0.061997	2082.979000
0.584944	0.451715	0.060833	2083.479000
0.569311	0.453203	0.059605	2083.979000
0.558414	0.455146	0.058363	2084.479000
0.526524	0.456093	0.056998	2084.979000
0.516291	0.456693	0.055588	2085.479000
0.486479	0.457623	0.054212	2085.979000
0.473923	0.459794	0.052922	2086.480000
0.460552	0.462051	0.051611	2086.979000
0.438780	0.464498	0.050389	2087.479000
0.424488	0.466970	0.049156	2087.979000
0.408808	0.468529	0.047961	2088.479000
0.388873	0.469856	0.046844	2088.979000
0.369717	0.470053	0.045592	2089.479000
0.351252	0.469281	0.044381	2089.979000
0.333023	0.469113	0.043354	2090.479000
0.312966	0.469973	0.042137	2090.979000
0.296216	0.470967	0.040759	2091.479000
0.277302	0.471377	0.039502	2091.979000
0.257666	0.472220	0.038346	2092.479000
0.239496	0.473434	0.037155	2092.979000
0.221668	0.475935	0.036043	2093.479000
0.204257	0.478110	0.034903	2093.979000
0.181997	0.479357	0.033820	2094.479000
0.160880	0.480178	0.032683	2094.979000
0.139868	0.480901	0.031714	2095.479000
0.118540	0.480681	0.030787	2095.979000
0.096117	0.481266	0.029636	2096.479000
0.079837	0.482197	0.028508	2096.979000
0.079263	0.483761	0.027422	2097.479000
0.079156	0.485212	0.026416	2097.979000
0.079306	0.485934	0.025338	2098.479000
0.079416	0.486458	0.024236	2098.979000
0.079507	0.486714	0.023290	2099.479000
0.079608	0.486601	0.022607	2099.979000
0.079610	0.487378	0.022040	2100.480000
0.079713	0.488230	0.021631	2100.979000
0.079648	0.489318	0.021234	2101.479000
0.079695	0.490543	0.020812	2101.980000
