Data run started at:  Thursday, October 19, 2017	2:43:50 PM
magnet(A)	lockin1(V)	lockin2(V)	time (sec)
NaN	NaN	NaN	6.406000
0.053398	0.498894	-0.006470	6.785000
0.053444	0.499107	-0.006477	7.285000
0.053200	0.499170	-0.006334	7.786000
0.053215	0.499090	-0.006129	8.285000
0.053267	0.498913	-0.005953	8.785000
0.053412	0.498601	-0.005796	9.285000
0.057925	0.498563	-0.005724	9.785000
0.074619	0.498708	-0.005632	10.285000
0.100830	0.498958	-0.005568	10.785000
0.122696	0.499096	-0.005451	11.285000
0.142617	0.499309	-0.005324	11.785000
0.162847	0.499728	-0.005034	12.285000
0.181829	0.499775	-0.004565	12.785000
0.201175	0.499461	-0.003987	13.285000
0.214313	0.498904	-0.003235	13.785000
0.230350	0.497654	-0.002552	14.285000
0.248797	0.496711	-0.001799	14.786000
0.265381	0.495568	-0.000816	15.285000
0.277930	0.494397	0.000198	15.785000
0.296146	0.493618	0.001086	16.285000
0.314334	0.493122	0.002143	16.786000
0.334396	0.492455	0.003011	17.285000
0.353245	0.491589	0.004033	17.785000
0.370410	0.491022	0.005135	18.285000
0.388132	0.490647	0.006275	18.785000
0.408936	0.490004	0.007472	19.285000
0.424811	0.489608	0.008769	19.785000
0.442596	0.489101	0.010238	20.285000
0.458628	0.488081	0.011499	20.785000
0.478949	0.486936	0.012595	21.285000
0.504075	0.485257	0.013548	21.785000
0.528317	0.483923	0.014535	22.285000
0.542397	0.482763	0.015682	22.785000
0.561182	0.481792	0.016840	23.285000
0.589709	0.481301	0.018024	23.785000
0.609012	0.479924	0.019323	24.285000
0.628485	0.477842	0.020523	24.785000
0.647406	0.475729	0.021775	25.285000
0.668231	0.474047	0.023186	25.785000
0.688420	0.472877	0.024513	26.285000
0.700002	0.472038	0.025852	26.785000
0.722442	0.471239	0.027115	27.285000
0.750141	0.470626	0.028462	27.785000
0.769440	0.470472	0.029908	28.285000
0.785742	0.469066	0.031317	28.785000
0.813452	0.467901	0.032690	29.285000
0.836530	0.467028	0.034012	29.785000
0.854477	0.465816	0.035378	30.285000
0.865315	0.464799	0.036851	30.785000
0.887869	0.464137	0.038237	31.285000
0.908397	0.463720	0.039696	31.785000
0.925722	0.462824	0.041049	32.285000
0.944770	0.461639	0.042368	32.785000
0.968132	0.460566	0.043768	33.285000
0.995095	0.459206	0.045230	33.786000
1.018003	0.457511	0.046485	34.285000
1.031177	0.456646	0.047718	34.785000
1.045657	0.455287	0.049098	35.285000
1.066144	0.453666	0.050538	35.785000
1.079779	0.452045	0.052030	36.285000
1.096044	0.450572	0.053331	36.785000
1.115728	0.448901	0.054619	37.285000
1.134586	0.447258	0.056034	37.785000
1.158066	0.446177	0.057384	38.285000
1.175917	0.444562	0.058860	38.785000
1.188769	0.443176	0.060257	39.286000
1.209123	0.441865	0.061520	39.785000
1.229272	0.440889	0.062689	40.285000
1.247121	0.439781	0.063718	40.785000
1.266537	0.438833	0.064754	41.286000
1.282240	0.438175	0.065812	41.785000
1.299064	0.437205	0.067014	42.285000
1.318699	0.436319	0.068330	42.785000
1.339636	0.435458	0.069745	43.285000
1.363385	0.434444	0.071090	43.785000
1.379584	0.433937	0.072466	44.285000
1.395370	0.432882	0.073771	44.785000
1.416797	0.431345	0.074878	45.285000
1.435922	0.430528	0.075980	45.785000
1.455398	0.429833	0.077386	46.285000
1.474690	0.428767	0.078947	46.786000
1.493078	0.427642	0.080399	47.285000
1.512619	0.426355	0.081751	47.786000
1.531082	0.425244	0.082954	48.285000
1.548600	0.424259	0.084086	48.786000
1.567524	0.422834	0.085253	49.285000
1.585645	0.421118	0.086469	49.785000
1.605991	0.419460	0.087891	50.285000
1.626058	0.417843	0.089362	50.785000
1.644791	0.416536	0.090861	51.285000
1.666018	0.415455	0.092200	51.785000
1.686302	0.415063	0.093400	52.286000
1.705822	0.414455	0.094629	52.785000
1.724118	0.413802	0.095929	53.285000
1.742988	0.413321	0.097342	53.785000
1.765249	0.412215	0.098818	54.286000
1.784783	0.410713	0.100284	54.785000
1.802837	0.409354	0.101647	55.285000
1.821988	0.407914	0.103085	55.785000
1.841172	0.406593	0.104414	56.285000
1.861435	0.406073	0.105746	56.786000
1.881683	0.405418	0.107155	57.285000
1.900532	0.405091	0.108427	57.785000
1.920452	0.404708	0.109631	58.285000
1.940046	0.403925	0.110875	58.786000
1.959868	0.402431	0.112148	59.285000
1.979770	0.400681	0.113488	59.785000
1.998853	0.399128	0.114771	60.285000
2.018776	0.398069	0.116007	60.785000
2.038153	0.396971	0.117402	61.285000
2.057141	0.395935	0.118677	61.785000
2.076933	0.394995	0.119946	62.285000
2.096102	0.394150	0.121313	62.785000
2.116007	0.392690	0.122688	63.285000
2.136662	0.391514	0.124027	63.785000
2.156418	0.390989	0.125236	64.286000
2.177449	0.390557	0.126429	64.785000
2.199126	0.390017	0.127840	65.285000
2.218457	0.388766	0.129352	65.785000
2.237995	0.386569	0.130939	66.285000
2.259323	0.385131	0.132442	66.786000
2.279433	0.384379	0.134078	67.285000
2.298641	0.383943	0.135603	67.785000
2.319837	0.383133	0.137099	68.285000
2.339054	0.382137	0.138427	68.785000
2.359568	0.381037	0.139686	69.285000
2.379899	0.379928	0.140972	69.785000
2.400185	0.378968	0.142339	70.285000
2.420747	0.377930	0.143755	70.785000
2.441857	0.376972	0.145141	71.285000
2.461605	0.375918	0.146512	71.785000
2.481006	0.375219	0.147924	72.285000
2.499729	0.374338	0.149277	72.785000
2.519004	0.373319	0.150774	73.285000
2.539356	0.372225	0.152051	73.785000
2.560021	0.370820	0.153472	74.286000
2.580130	0.369362	0.154861	74.785000
2.599997	0.368269	0.156205	75.285000
2.618774	0.367725	0.157615	75.785000
2.638306	0.366966	0.158980	76.285000
2.659902	0.366385	0.160417	76.785000
2.679532	0.365619	0.161744	77.285000
2.700647	0.364581	0.163030	77.785000
2.721749	0.363248	0.164461	78.285000
2.744404	0.362088	0.165923	78.785000
2.764831	0.360993	0.167304	79.285000
2.784804	0.360364	0.168633	79.785000
2.803556	0.359947	0.169975	80.285000
2.825201	0.359405	0.171507	80.785000
2.846540	0.358357	0.172940	81.285000
2.866786	0.356613	0.174326	81.785000
2.885902	0.354800	0.175682	82.285000
2.906497	0.353564	0.177056	82.785000
2.927086	0.352910	0.178462	83.286000
2.944934	0.352901	0.179712	83.785000
2.965306	0.353041	0.181057	84.285000
2.985273	0.353452	0.182520	84.786000
3.006947	0.353602	0.184022	85.286000
3.029907	0.352822	0.185516	85.785000
3.050408	0.351006	0.186841	86.285000
3.071535	0.348286	0.188107	86.785000
3.089198	0.345639	0.189354	87.285000
3.108987	0.343863	0.190756	87.786000
3.129556	0.343368	0.192273	88.285000
3.149609	0.343946	0.193750	88.785000
3.169281	0.344885	0.195135	89.285000
3.188309	0.345723	0.196569	89.785000
3.208082	0.345618	0.198028	90.286000
3.228619	0.344337	0.199446	90.785000
3.249174	0.342683	0.201018	91.285000
3.270079	0.340282	0.202555	91.785000
3.288429	0.337725	0.203934	92.285000
3.309267	0.336091	0.205432	92.785000
3.330656	0.335430	0.206800	93.285000
3.350589	0.335462	0.208149	93.785000
3.371490	0.336383	0.209472	94.286000
3.391684	0.338071	0.210874	94.785000
3.411671	0.339471	0.212206	95.286000
3.430949	0.340174	0.213543	95.785000
3.449248	0.339865	0.215005	96.285000
3.468125	0.338267	0.216421	96.786000
3.487899	0.335480	0.217763	97.285000
3.505953	0.331911	0.218997	97.786000
3.525703	0.328216	0.220171	98.285000
3.545284	0.325571	0.221521	98.785000
3.564869	0.324121	0.223059	99.285000
3.584669	0.324072	0.224565	99.785000
3.605766	0.325408	0.225775	100.285000
3.625782	0.327778	0.226963	100.785000
3.644814	0.330267	0.228144	101.285000
3.663540	0.332857	0.229265	101.785000
3.682488	0.334783	0.230534	102.285000
3.702042	0.335660	0.231725	102.785000
3.722133	0.334995	0.233001	103.285000
3.743476	0.332739	0.234579	103.785000
3.763467	0.329181	0.236120	104.285000
3.784684	0.324877	0.237783	104.785000
3.805908	0.320341	0.239337	105.285000
3.826343	0.316457	0.240815	105.785000
3.846137	0.313855	0.242163	106.285000
3.863806	0.313050	0.243296	106.785000
3.883053	0.313932	0.244438	107.285000
3.903213	0.316540	0.245530	107.785000
3.923365	0.320349	0.246798	108.285000
3.942828	0.324886	0.248180	108.785000
3.962891	0.329110	0.249609	109.285000
3.982102	0.332697	0.251066	109.785000
4.001829	0.334840	0.252422	110.285000
4.018934	0.335052	0.253920	110.786000
4.038792	0.333442	0.255486	111.285000
4.059767	0.330323	0.256913	111.785000
4.078945	0.326114	0.258449	112.285000
4.098073	0.320975	0.260073	112.785000
4.118828	0.315316	0.261688	113.285000
4.137691	0.309468	0.263128	113.785000
4.156326	0.304609	0.264454	114.285000
4.175773	0.301329	0.265633	114.785000
4.195536	0.300203	0.266997	115.285000
4.214807	0.301174	0.268227	115.785000
4.233628	0.304204	0.269313	116.285000
4.252839	0.308953	0.270239	116.785000
4.273186	0.314693	0.271215	117.285000
4.293007	0.320998	0.272207	117.785000
4.313776	0.327221	0.273415	118.285000
4.333761	0.332793	0.274741	118.785000
4.354097	0.337076	0.276124	119.285000
4.373870	0.339544	0.277471	119.785000
4.394770	0.340054	0.278835	120.285000
4.414634	0.338485	0.280291	120.786000
4.434073	0.335019	0.281769	121.285000
4.454245	0.330141	0.283484	121.785000
4.476078	0.323805	0.285124	122.286000
4.496707	0.316151	0.286778	122.785000
4.516166	0.308235	0.288292	123.285000
4.535178	0.300826	0.289799	123.785000
4.555037	0.294365	0.291208	124.285000
4.574359	0.289411	0.292559	124.785000
4.594594	0.286684	0.293769	125.285000
4.614871	0.286844	0.295008	125.785000
4.633228	0.289631	0.296124	126.285000
4.653050	0.294712	0.297153	126.785000
4.672654	0.301732	0.298087	127.285000
4.692297	0.310203	0.299164	127.785000
4.711333	0.319089	0.300324	128.285000
4.730447	0.328136	0.301547	128.785000
4.748505	0.336418	0.302790	129.285000
4.768730	0.343487	0.304080	129.785000
4.788376	0.349052	0.305536	130.285000
4.808326	0.352822	0.306921	130.785000
4.827381	0.354414	0.308209	131.285000
4.846745	0.353579	0.309716	131.785000
4.866070	0.350808	0.311388	132.285000
4.887497	0.346304	0.313058	132.785000
4.907038	0.339942	0.314821	133.286000
4.926171	0.332503	0.316454	133.785000
4.945402	0.323992	0.317963	134.285000
4.965088	0.314769	0.319651	134.785000
4.985817	0.304983	0.321387	135.286000
5.006112	0.295275	0.323173	135.785000
5.026895	0.286532	0.324727	136.285000
5.046514	0.279607	0.326108	136.785000
5.065863	0.274487	0.327170	137.285000
5.087871	0.271509	0.328185	137.785000
5.106609	0.271399	0.329259	138.285000
5.125782	0.274483	0.330095	138.785000
5.146003	0.280544	0.330827	139.285000
5.163867	0.289105	0.331628	139.785000
5.184258	0.299782	0.332696	140.285000
5.204764	0.311822	0.333767	140.786000
5.224811	0.324784	0.334852	141.285000
5.245336	0.338070	0.335836	141.785000
5.262558	0.350598	0.336900	142.285000
5.283889	0.361788	0.338026	142.785000
5.303437	0.371253	0.339312	143.285000
5.321960	0.378680	0.340805	143.785000
5.342335	0.384008	0.342296	144.285000
5.363570	0.386879	0.343869	144.785000
5.386667	0.387567	0.345454	145.285000
5.408830	0.386526	0.347142	145.785000
5.428562	0.383240	0.348914	146.286000
5.447906	0.377937	0.350600	146.785000
5.469316	0.370350	0.352413	147.285000
5.488495	0.360804	0.354320	147.785000
5.508680	0.350427	0.356215	148.285000
5.527422	0.339015	0.357964	148.785000
5.546003	0.326689	0.359711	149.285000
5.563260	0.314269	0.361631	149.785000
5.580923	0.302072	0.363377	150.285000
5.600024	0.290023	0.364779	150.785000
5.616922	0.278967	0.366100	151.285000
5.635898	0.269555	0.367374	151.785000
5.657210	0.262071	0.368445	152.285000
5.677224	0.256683	0.369466	152.785000
5.694035	0.253558	0.370462	153.286000
5.711623	0.252746	0.371388	153.785000
5.730872	0.255137	0.372057	154.285000
5.747987	0.260439	0.372861	154.785000
5.767874	0.268532	0.373783	155.285000
5.786866	0.279252	0.374536	155.785000
5.803916	0.292320	0.375159	156.286000
5.824185	0.307281	0.375749	156.785000
5.844587	0.323309	0.376408	157.285000
5.864958	0.340063	0.377443	157.785000
5.880915	0.356914	0.378369	158.285000
5.900560	0.373496	0.379455	158.785000
5.920150	0.389563	0.380695	159.285000
5.940160	0.404171	0.381904	159.785000
5.957505	0.416963	0.382968	160.285000
5.979871	0.427602	0.384000	160.786000
6.000034	0.436124	0.385149	161.285000
6.018359	0.442423	0.386613	161.785000
6.034562	0.446700	0.388079	162.285000
6.052568	0.448970	0.389804	162.785000
6.076532	0.449142	0.391375	163.285000
6.093432	0.447328	0.393062	163.785000
6.108830	0.444067	0.394889	164.285000
6.127917	0.440177	0.396462	164.785000
6.148457	0.434489	0.398305	165.285000
6.169674	0.426792	0.400219	165.785000
6.188531	0.417484	0.401934	166.285000
6.206546	0.406866	0.404075	166.785000
6.224524	0.394991	0.406075	167.285000
6.243129	0.382249	0.407739	167.785000
6.263063	0.369032	0.409641	168.285000
6.279045	0.355577	0.411456	168.785000
6.297298	0.341841	0.412723	169.285000
6.315825	0.327982	0.414270	169.785000
6.338064	0.314399	0.416168	170.285000
6.356302	0.301091	0.417881	170.785000
6.373804	0.287949	0.419248	171.285000
6.392455	0.275370	0.420210	171.786000
6.409860	0.263849	0.421291	172.285000
6.431387	0.253663	0.422689	172.785000
6.453349	0.244849	0.423927	173.285000
6.470451	0.238495	0.424672	173.785000
6.487610	0.234678	0.425074	174.285000
6.504512	0.233421	0.425586	174.785000
6.521484	0.235157	0.426196	175.285000
6.541069	0.239741	0.427159	175.785000
6.560815	0.247395	0.428203	176.285000
6.578463	0.258096	0.429201	176.786000
6.596292	0.271721	0.430317	177.285000
6.615745	0.287948	0.431268	177.785000
6.633800	0.305886	0.432232	178.285000
6.654826	0.325238	0.433054	178.785000
6.674524	0.345661	0.433977	179.285000
6.692877	0.367179	0.434907	179.785000
6.712224	0.389229	0.435811	180.285000
6.730264	0.411216	0.436607	180.785000
6.750085	0.432471	0.437375	181.285000
6.769807	0.452452	0.438156	181.786000
6.788885	0.471374	0.438888	182.286000
6.807926	0.488897	0.439362	182.785000
6.826453	0.504734	0.440125	183.285000
6.847372	0.518634	0.441344	183.785000
6.866775	0.529956	0.442830	184.285000
6.885401	0.539629	0.444202	184.785000
6.905092	0.547244	0.445444	185.286000
6.925286	0.552970	0.446961	185.785000
6.944568	0.557034	0.448679	186.285000
6.963867	0.559213	0.450272	186.785000
6.983052	0.559390	0.451785	187.286000
7.002348	0.557614	0.453588	187.785000
7.022571	0.553977	0.455351	188.285000
7.043817	0.548973	0.457022	188.785000
7.063173	0.542312	0.458825	189.285000
7.082755	0.534433	0.460530	189.785000
7.101269	0.525553	0.462165	190.285000
7.119662	0.515599	0.464022	190.785000
7.140591	0.504740	0.465815	191.285000
7.159167	0.492877	0.467778	191.785000
7.176953	0.480037	0.470035	192.285000
7.194882	0.466609	0.471764	192.785000
7.213178	0.452862	0.473553	193.286000
7.234089	0.438678	0.475257	193.785000
7.253104	0.423969	0.477125	194.285000
7.271252	0.409025	0.478968	194.785000
7.290354	0.393738	0.480666	195.286000
7.309367	0.378264	0.482486	195.785000
7.329092	0.362417	0.484321	196.286000
7.348269	0.346251	0.486260	196.785000
7.366373	0.330120	0.488054	197.285000
7.385169	0.314455	0.489970	197.785000
7.402905	0.299428	0.491705	198.285000
7.422439	0.284607	0.493145	198.785000
7.442248	0.270466	0.494358	199.285000
7.461331	0.257414	0.495304	199.785000
7.480817	0.245614	0.496380	200.285000
7.500424	0.234934	0.497343	200.785000
7.520370	0.225983	0.498226	201.285000
7.540488	0.219418	0.499067	201.785000
7.559986	0.215646	0.499678	202.285000
7.580045	0.214601	0.500183	202.785000
7.600728	0.216807	0.500561	203.285000
7.622258	0.222371	0.500913	203.785000
7.640577	0.231238	0.501338	204.285000
7.659515	0.243102	0.501779	204.785000
7.679146	0.257613	0.502129	205.285000
7.700253	0.274963	0.502311	205.785000
7.721955	0.295373	0.502693	206.286000
7.742328	0.318334	0.503177	206.785000
7.764330	0.343246	0.503842	207.286000
7.783862	0.369788	0.504470	207.785000
7.804857	0.397373	0.505095	208.286000
7.826723	0.425745	0.505662	208.785000
7.848199	0.454643	0.506461	209.285000
7.869858	0.483308	0.507487	209.785000
7.888773	0.511309	0.508599	210.285000
7.910593	0.538604	0.509827	210.785000
7.931079	0.564821	0.511052	211.285000
7.952588	0.589643	0.512354	211.785000
7.972684	0.612817	0.513679	212.285000
7.993729	0.634140	0.514984	212.785000
8.014850	0.653355	0.516276	213.286000
8.035040	0.670599	0.517676	213.785000
8.057964	0.685967	0.519071	214.285000
8.076362	0.699678	0.520556	214.785000
8.094666	0.711567	0.522078	215.285000
8.114011	0.721786	0.523641	215.785000
8.133536	0.730259	0.525217	216.285000
8.152136	0.736960	0.526891	216.785000
8.170370	0.741825	0.528517	217.285000
8.190078	0.744938	0.530037	217.785000
8.209253	0.746296	0.531550	218.285000
8.227713	0.746111	0.533049	218.785000
8.247154	0.744718	0.534900	219.285000
8.267148	0.742138	0.536652	219.785000
8.287131	0.738073	0.538297	220.285000
8.306206	0.733054	0.539836	220.786000
8.326351	0.726908	0.541363	221.285000
8.344772	0.719347	0.542933	221.785000
8.364663	0.710842	0.544828	222.285000
8.383999	0.701385	0.546892	222.785000
8.405413	0.690953	0.548719	223.285000
8.425127	0.679487	0.550343	223.785000
8.444241	0.666975	0.552025	224.286000
8.463409	0.653867	0.553688	224.785000
8.481724	0.640135	0.555362	225.286000
8.502555	0.625689	0.557200	225.785000
8.522574	0.611009	0.559000	226.285000
8.541959	0.596215	0.560929	226.785000
8.559363	0.581311	0.562941	227.285000
8.578308	0.565658	0.565124	227.785000
8.598796	0.549903	0.567426	228.285000
8.618884	0.533560	0.569392	228.785000
8.638356	0.516763	0.571310	229.285000
8.658769	0.499959	0.573357	229.786000
8.678089	0.483091	0.575275	230.285000
8.697598	0.465583	0.577371	230.785000
8.718121	0.447664	0.579603	231.285000
8.735587	0.429495	0.581725	231.785000
8.757402	0.411540	0.583722	232.285000
8.777154	0.393737	0.585637	232.785000
8.796257	0.376017	0.587635	233.285000
8.817114	0.358160	0.589507	233.785000
8.835748	0.340650	0.591222	234.285000
8.855167	0.323618	0.592882	234.785000
8.875072	0.306881	0.594415	235.286000
8.894947	0.290450	0.595818	235.785000
8.914078	0.274160	0.597056	236.285000
8.933430	0.258214	0.598129	236.785000
8.954571	0.243606	0.599065	237.285000
8.972586	0.230386	0.599846	237.785000
8.992043	0.218570	0.600616	238.285000
9.011457	0.208630	0.601273	238.785000
9.028816	0.201127	0.601621	239.285000
9.046219	0.196188	0.601924	239.785000
9.065112	0.193969	0.602220	240.285000
9.084094	0.194769	0.602433	240.785000
9.100787	0.198694	0.602539	241.285000
9.119427	0.205424	0.602783	241.785000
9.138029	0.214831	0.602976	242.285000
9.157580	0.226534	0.602991	242.786000
9.176893	0.240797	0.603016	243.285000
9.195757	0.257387	0.603225	243.785000
9.216547	0.276063	0.603430	244.285000
9.235294	0.296958	0.603712	244.785000
9.253482	0.320259	0.604070	245.285000
9.272922	0.345707	0.604370	245.785000
9.291858	0.372956	0.604519	246.285000
9.311851	0.401278	0.604858	246.785000
9.330370	0.430648	0.605501	247.285000
9.349474	0.460709	0.606254	247.785000
9.368628	0.490849	0.607165	248.285000
9.389235	0.520978	0.608105	248.785000
9.408999	0.550905	0.609015	249.285000
9.428012	0.580839	0.610068	249.785000
9.446684	0.610798	0.611179	250.285000
9.464897	0.640368	0.612184	250.785000
9.484399	0.669160	0.613143	251.285000
9.503823	0.696935	0.614239	251.785000
9.524191	0.723442	0.615482	252.285000
9.545378	0.748270	0.616551	252.786000
9.566486	0.772040	0.617612	253.285000
9.583759	0.795354	0.618751	253.785000
9.602502	0.817934	0.619900	254.286000
9.620639	0.839495	0.621054	254.785000
9.639740	0.859943	0.622264	255.285000
9.659956	0.879182	0.623419	255.785000
9.680938	0.897117	0.624669	256.285000
9.700866	0.914118	0.625991	256.785000
9.720631	0.930285	0.627388	257.286000
9.741082	0.945736	0.628895	257.785000
9.762525	0.960166	0.630195	258.286000
9.782896	0.973437	0.631517	258.785000
9.803430	0.985868	0.632920	259.285000
9.822641	0.997068	0.634482	259.785000
9.844210	1.006806	0.636011	260.285000
9.866107	1.015971	0.637437	260.785000
9.885832	1.024441	0.638929	261.285000
9.905364	1.031876	0.640457	261.786000
9.924448	1.038258	0.642136	262.285000
9.944514	1.043475	0.643924	262.785000
9.965735	1.047901	0.645770	263.285000
9.985419	1.051419	0.647540	263.785000
10.004126	1.054077	0.649067	264.285000
10.024130	1.055820	0.650388	264.785000
10.043908	1.056449	0.651752	265.286000
10.063911	1.056293	0.653119	265.785000
10.081889	1.055099	0.654661	266.285000
10.100933	1.053015	0.656206	266.785000
10.120415	1.050342	0.657863	267.285000
10.137909	1.046890	0.659442	267.785000
10.157019	1.042752	0.661020	268.286000
10.176037	1.037769	0.662605	268.785000
10.195697	1.031701	0.664119	269.285000
10.213754	1.025126	0.665646	269.785000
10.233216	1.017662	0.667291	270.285000
10.253900	1.009423	0.668999	270.785000
10.274655	1.000416	0.670716	271.285000
10.294957	0.990845	0.672391	271.785000
10.314505	0.980550	0.674294	272.285000
10.333840	0.969654	0.676232	272.785000
10.353480	0.958195	0.677970	273.285000
10.372069	0.945889	0.679753	273.785000
10.393381	0.932799	0.681590	274.285000
10.413058	0.919230	0.683592	274.786000
10.432174	0.905178	0.685509	275.285000
10.457586	0.890598	0.687340	275.785000
10.475697	0.875599	0.689164	276.285000
10.496440	0.859840	0.691062	276.785000
10.517863	0.843673	0.692887	277.285000
10.539163	0.827179	0.694854	277.785000
10.559524	0.810597	0.696835	278.285000
10.579454	0.793578	0.698827	278.785000
10.597293	0.776185	0.700822	279.286000
10.618441	0.758622	0.702814	279.785000
10.639546	0.740804	0.704851	280.285000
10.660089	0.722693	0.706913	280.785000
10.680682	0.704443	0.708911	281.285000
10.704563	0.685736	0.710910	281.785000
10.722954	0.666985	0.713088	282.285000
10.745678	0.648042	0.715454	282.785000
10.764036	0.628961	0.717655	283.285000
10.781318	0.609653	0.719672	283.785000
10.798870	0.590074	0.721709	284.285000
10.821375	0.570233	0.723901	284.785000
10.843600	0.550248	0.726118	285.285000
10.861634	0.530160	0.728307	285.785000
10.885169	0.509982	0.730440	286.285000
10.906979	0.489695	0.732560	286.785000
10.925232	0.469387	0.734589	287.285000
10.944056	0.449141	0.736589	287.785000
10.961890	0.429145	0.738525	288.285000
10.981043	0.409166	0.740468	288.785000
10.999460	0.389815	0.742336	289.286000
11.031764	0.370543	0.744026	289.785000
11.048789	0.351684	0.745659	290.285000
11.058548	0.332801	0.747266	290.785000
11.074921	0.313792	0.748731	291.285000
11.089753	0.295324	0.750087	291.785000
11.112107	0.277509	0.751320	292.285000
11.135572	0.259917	0.752038	292.785000
11.153487	0.243230	0.752462	293.285000
11.173285	0.227842	0.752943	293.786000
11.190177	0.213739	0.753528	294.285000
11.209021	0.201450	0.753888	294.786000
11.227640	0.190983	0.754110	295.285000
11.246821	0.182804	0.754335	295.785000
11.264723	0.176446	0.754357	296.286000
11.283083	0.172568	0.754348	296.785000
11.301373	0.171411	0.754363	297.285000
11.323100	0.172695	0.754439	297.785000
11.340826	0.176168	0.754660	298.285000
11.358309	0.181900	0.754937	298.785000
11.378369	0.189510	0.755026	299.285000
11.396343	0.199123	0.755149	299.785000
11.415680	0.210696	0.754976	300.286000
11.436940	0.223819	0.754884	300.786000
11.457138	0.238651	0.754837	301.285000
11.477259	0.255325	0.754934	301.785000
11.497261	0.273809	0.755096	302.285000
11.512837	0.294287	0.755118	302.785000
11.533544	0.316696	0.754984	303.285000
11.553608	0.340949	0.754960	303.785000
11.573207	0.366889	0.755090	304.285000
11.591237	0.394396	0.755460	304.785000
11.609534	0.423821	0.755736	305.285000
11.628215	0.454272	0.756187	305.785000
11.647011	0.485137	0.756858	306.285000
11.667707	0.516358	0.757595	306.785000
11.686162	0.548063	0.758344	307.285000
11.704794	0.580063	0.759076	307.785000
11.724244	0.611941	0.759918	308.285000
11.743133	0.643823	0.760561	308.785000
11.762684	0.675740	0.761227	309.285000
11.781131	0.707475	0.762150	309.785000
11.803273	0.738759	0.763073	310.285000
11.820143	0.769507	0.763959	310.786000
11.841087	0.799810	0.764903	311.285000
11.859390	0.829535	0.765907	311.785000
11.877243	0.858778	0.766822	312.285000
11.896017	0.887344	0.767818	312.785000
11.916689	0.915007	0.768986	313.285000
11.935248	0.941586	0.770051	313.785000
11.954717	0.967362	0.771172	314.285000
11.973689	0.992584	0.772262	314.786000
11.994020	1.017256	0.773312	315.285000
12.013685	1.041138	0.774362	315.785000
12.034608	1.064426	0.775453	316.285000
12.053820	1.086983	0.776612	316.785000
12.073117	1.108829	0.777949	317.285000
12.091324	1.130119	0.779241	317.785000
12.112938	1.150677	0.780483	318.285000
12.133000	1.170774	0.781719	318.785000
12.153022	1.190240	0.782906	319.285000
12.171480	1.208606	0.784284	319.785000
12.192135	1.226112	0.785579	320.286000
12.212634	1.243200	0.786972	320.785000
12.231030	1.259709	0.788397	321.285000
12.250789	1.275982	0.789816	321.785000
12.270419	1.291545	0.791404	322.285000
12.290663	1.306381	0.792951	322.785000
12.310320	1.321107	0.794454	323.285000
12.329050	1.335003	0.796053	323.786000
12.347403	1.347984	0.797468	324.285000
12.365963	1.360292	0.798989	324.786000
12.385352	1.371897	0.800599	325.285000
12.405981	1.383277	0.801997	325.785000
12.426090	1.394282	0.803233	326.285000
12.445783	1.404746	0.804666	326.785000
12.465326	1.414708	0.806015	327.286000
12.484622	1.424116	0.807296	327.785000
12.505406	1.432773	0.808641	328.285000
12.523870	1.441053	0.810054	328.785000
12.541503	1.449206	0.811500	329.285000
12.560589	1.456883	0.812946	329.785000
12.581687	1.463838	0.814440	330.285000
12.602626	1.470612	0.815736	330.785000
12.622244	1.476854	0.817134	331.285000
12.642841	1.482513	0.818360	331.785000
12.662489	1.487779	0.819813	332.285000
12.682032	1.492787	0.821255	332.785000
12.702911	1.497387	0.822708	333.285000
12.721798	1.501674	0.824110	333.785000
12.740126	1.505994	0.825469	334.285000
12.758516	1.510079	0.826959	334.785000
12.778591	1.514013	0.828342	335.285000
12.798002	1.517141	0.829753	335.785000
12.818319	1.520142	0.831218	336.285000
12.836811	1.523068	0.832557	336.785000
12.855757	1.525216	0.833903	337.285000
12.873629	1.527050	0.835174	337.785000
12.892897	1.528284	0.836510	338.285000
12.911987	1.529281	0.837938	338.785000
12.932410	1.530150	0.839510	339.286000
12.952693	1.530577	0.841002	339.785000
12.972827	1.530653	0.842471	340.285000
12.993236	1.530723	0.843970	340.785000
13.013927	1.530736	0.845533	341.285000
13.035405	1.530507	0.847061	341.785000
13.054632	1.529650	0.848585	342.285000
13.075468	1.528367	0.850138	342.785000
13.096142	1.526626	0.851544	343.285000
13.115487	1.524584	0.852862	343.785000
13.134542	1.522576	0.854235	344.285000
13.152924	1.520072	0.855705	344.785000
13.173078	1.517366	0.857190	345.285000
13.193941	1.514478	0.858841	345.785000
13.214722	1.511126	0.860575	346.285000
13.235227	1.507541	0.862274	346.786000
13.255916	1.503685	0.863820	347.285000
13.277458	1.499718	0.865356	347.785000
13.298845	1.495664	0.867036	348.285000
13.318571	1.490971	0.868803	348.785000
13.338375	1.485931	0.870551	349.285000
13.358785	1.480079	0.872138	349.785000
13.378873	1.473913	0.873719	350.285000
13.398842	1.467531	0.875341	350.785000
13.417427	1.460534	0.877027	351.285000
13.436560	1.453462	0.878811	351.785000
13.455530	1.445998	0.880637	352.285000
13.475125	1.437742	0.882492	352.785000
13.495185	1.428923	0.884153	353.285000
13.515057	1.419779	0.885857	353.785000
13.535216	1.410410	0.887755	354.285000
13.555853	1.400786	0.889648	354.786000
13.576064	1.390759	0.891480	355.285000
13.594560	1.380070	0.893217	355.785000
13.614649	1.369062	0.894935	356.285000
13.633989	1.357726	0.896528	356.785000
13.653394	1.345928	0.898342	357.285000
13.673832	1.333490	0.900223	357.785000
13.694136	1.320806	0.902002	358.285000
13.714367	1.307874	0.903870	358.785000
13.733135	1.294536	0.905772	359.286000
13.754545	1.280768	0.907727	359.785000
13.775446	1.266392	0.909802	360.285000
13.795891	1.251400	0.911785	360.785000
13.815904	1.235912	0.913666	361.286000
13.835909	1.219731	0.915658	361.785000
13.856549	1.203318	0.917639	362.285000
13.876803	1.186915	0.919606	362.785000
13.896647	1.170417	0.921661	363.285000
13.915364	1.153673	0.923761	363.785000
13.933442	1.137191	0.925808	364.285000
13.954588	1.120323	0.928027	364.785000
13.973947	1.103299	0.930341	365.285000
13.995306	1.086457	0.932553	365.785000
14.015670	1.069369	0.934725	366.285000
14.036245	1.052114	0.936823	366.785000
14.057403	1.034735	0.938849	367.285000
14.077511	1.017246	0.940876	367.785000
14.097808	0.999526	0.942933	368.285000
14.119364	0.981551	0.945071	368.785000
14.139019	0.963597	0.947236	369.285000
14.159829	0.945109	0.949541	369.785000
14.181254	0.925726	0.951814	370.286000
14.200925	0.906330	0.954255	370.785000
14.221890	0.886591	0.956692	371.285000
14.242700	0.866176	0.959069	371.785000
14.265268	0.845240	0.961358	372.286000
14.286755	0.824260	0.963492	372.785000
14.308653	0.802906	0.965704	373.285000
14.329547	0.780888	0.967921	373.785000
14.350536	0.758508	0.970148	374.285000
14.371780	0.735763	0.972377	374.786000
14.391946	0.712616	0.974726	375.285000
14.412349	0.689398	0.976956	375.785000
14.433177	0.665684	0.979092	376.285000
14.457668	0.641534	0.981060	376.785000
14.479124	0.617548	0.983177	377.285000
14.500094	0.593400	0.985456	377.785000
14.521304	0.569202	0.987780	378.286000
14.543392	0.544961	0.989947	378.785000
14.564805	0.520976	0.992079	379.285000
14.588117	0.497110	0.994098	379.785000
14.611679	0.473174	0.996073	380.285000
14.632592	0.449197	0.997726	380.785000
14.653678	0.425796	0.999289	381.285000
14.673408	0.402067	1.000812	381.785000
14.693463	0.378358	1.002065	382.285000
14.714763	0.354739	1.003152	382.785000
14.735177	0.331766	1.004152	383.285000
14.756355	0.309192	1.004958	383.786000
14.776804	0.287289	1.005663	384.285000
14.797262	0.266660	1.006332	384.786000
14.818320	0.246877	1.006918	385.285000
14.840298	0.228736	1.007399	385.785000
14.860370	0.212539	1.007633	386.285000
14.880209	0.198517	1.007791	386.785000
14.898846	0.186216	1.007890	387.285000
14.920483	0.176192	1.007940	387.785000
14.939369	0.168301	1.007774	388.285000
14.959940	0.162384	1.007927	388.785000
14.979454	0.158682	1.008043	389.285000
15.000734	0.156881	1.008213	389.785000
15.018895	0.156868	1.008313	390.285000
15.040119	0.158601	1.008299	390.785000
15.061900	0.162053	1.008193	391.285000
15.082077	0.166714	1.008113	391.785000
15.100705	0.172153	1.008288	392.285000
15.122693	0.178664	1.008514	392.785000
15.144055	0.186302	1.008638	393.285000
15.163487	0.195176	1.008750	393.785000
15.184480	0.205193	1.008671	394.285000
15.203263	0.216482	1.008556	394.785000
15.221875	0.229319	1.008451	395.285000
15.242259	0.242822	1.008367	395.785000
15.262452	0.257505	1.008199	396.285000
15.281470	0.273283	1.007908	396.785000
15.300629	0.289739	1.007798	397.285000
15.320178	0.307236	1.007835	397.785000
15.343069	0.325961	1.007867	398.285000
15.363858	0.346163	1.007735	398.785000
15.384283	0.368172	1.007556	399.285000
15.401608	0.391729	1.007609	399.785000
15.421740	0.416686	1.007561	400.285000
15.444118	0.442816	1.007572	400.785000
15.464865	0.470495	1.007496	401.286000
15.484488	0.499502	1.007439	401.785000
15.504514	0.529724	1.007529	402.285000
15.526254	0.560807	1.007559	402.785000
15.547537	0.593059	1.007585	403.285000
15.568810	0.626447	1.007757	403.785000
15.588159	0.660700	1.008186	404.285000
15.609784	0.695948	1.008886	404.786000
15.630136	0.731499	1.009446	405.285000
15.649323	0.767282	1.010161	405.785000
15.670627	0.803032	1.010825	406.285000
15.692020	0.838418	1.011635	406.785000
15.711862	0.873786	1.012479	407.285000
15.734132	0.909282	1.013234	407.786000
15.757075	0.944265	1.013933	408.286000
15.775213	0.978891	1.014728	408.785000
15.796395	1.013290	1.015728	409.285000
15.817982	1.046956	1.016678	409.785000
15.836764	1.079985	1.017706	410.286000
15.858978	1.112464	1.019000	410.785000
15.875399	1.144309	1.020212	411.286000
15.895365	1.175346	1.021425	411.785000
15.917095	1.205616	1.022454	412.286000
15.940924	1.235153	1.023607	412.785000
15.961810	1.263574	1.024818	413.285000
15.980059	1.291642	1.026062	413.785000
15.999697	1.318994	1.027247	414.285000
16.021619	1.345800	1.028452	414.786000
16.040942	1.371879	1.029699	415.285000
16.064590	1.397267	1.030797	415.785000
16.082024	1.421830	1.031867	416.285000
16.104865	1.445951	1.033084	416.785000
16.124063	1.469427	1.034368	417.285000
16.142767	1.491987	1.035672	417.785000
16.163628	1.513885	1.037052	418.286000
16.185366	1.535261	1.038274	418.785000
16.206343	1.556269	1.039606	419.285000
16.225723	1.576378	1.040990	419.785000
16.244924	1.595711	1.042430	420.286000
16.265768	1.614436	1.043911	420.785000
16.287685	1.632569	1.045455	421.286000
16.305777	1.650297	1.046789	421.785000
16.326085	1.667667	1.048123	422.286000
16.347380	1.684293	1.049512	422.785000
16.366513	1.700745	1.050999	423.285000
16.386699	1.716586	1.052476	423.785000
16.410249	1.731633	1.054042	424.285000
16.427682	1.746376	1.055616	424.785000
16.448626	1.760520	1.057065	425.285000
16.466904	1.774590	1.058619	425.785000
16.485263	1.788244	1.060251	426.285000
16.504428	1.801215	1.061886	426.785000
16.526660	1.813506	1.063550	427.285000
16.546417	1.825074	1.065268	427.785000
16.563754	1.836367	1.066872	428.285000
16.585251	1.847576	1.068226	428.785000
16.606602	1.858588	1.069659	429.285000
16.623630	1.868867	1.071293	429.785000
16.643864	1.878487	1.072824	430.286000
16.662292	1.888045	1.074522	430.785000
16.681064	1.897308	1.076029	431.285000
16.701320	1.906585	1.077518	431.786000
16.721860	1.915471	1.078954	432.286000
16.741531	1.923788	1.080337	432.785000
16.762492	1.932172	1.081753	433.286000
16.783461	1.940534	1.083202	433.785000
16.805377	1.948281	1.084689	434.285000
16.824780	1.955306	1.085968	434.785000
16.844915	1.962067	1.087363	435.285000
16.866118	1.968419	1.088914	435.786000
16.886354	1.974655	1.090430	436.285000
16.906351	1.980538	1.091947	436.785000
16.926938	1.986293	1.093619	437.285000
16.946216	1.992060	1.095335	437.785000
16.966550	1.997299	1.096846	438.285000
16.987479	2.002429	1.098330	438.785000
17.008327	2.007478	1.099717	439.285000
17.028977	2.012030	1.101246	439.785000
17.050479	2.016525	1.102885	440.285000
17.070033	2.020701	1.104519	440.785000
17.091177	2.024604	1.106007	441.285000
17.111725	2.028189	1.107556	441.785000
17.133212	2.032022	1.109224	442.285000
17.151196	2.035042	1.111027	442.785000
17.170837	2.038152	1.112727	443.285000
17.192794	2.041209	1.114508	443.785000
17.214525	2.044153	1.116156	444.286000
17.235240	2.046763	1.117816	444.786000
17.254590	2.049265	1.119287	445.285000
17.274442	2.051859	1.120817	445.785000
17.297397	2.054029	1.122273	446.285000
17.316544	2.055706	1.123778	446.785000
17.337442	2.057454	1.125124	447.285000
17.358292	2.059495	1.126465	447.785000
17.380485	2.061533	1.127900	448.285000
17.401861	2.062920	1.129499	448.785000
17.421766	2.063896	1.131208	449.285000
17.440628	2.064772	1.132909	449.785000
17.460670	2.065866	1.134464	450.285000
17.482720	2.066858	1.135919	450.785000
17.504868	2.067865	1.137383	451.285000
17.527109	2.068830	1.138828	451.785000
17.547336	2.069632	1.140236	452.286000
17.568673	2.070316	1.141605	452.785000
17.589586	2.071117	1.142966	453.286000
17.610390	2.071874	1.144336	453.785000
17.630484	2.072655	1.145428	454.285000
17.650635	2.073038	1.146714	454.785000
17.671451	2.073491	1.148212	455.285000
17.691563	2.074238	1.149674	455.786000
17.712060	2.075001	1.151025	456.285000
17.731433	2.075500	1.152522	456.785000
17.750854	2.075712	1.154134	457.285000
17.771832	2.076063	1.155716	457.785000
17.792900	2.076540	1.157172	458.285000
17.812510	2.076948	1.158548	458.785000
17.831638	2.077264	1.159947	459.285000
17.851353	2.077686	1.161157	459.785000
17.872314	2.078150	1.162408	460.285000
17.893088	2.078429	1.163747	460.785000
17.911900	2.078488	1.164935	461.286000
17.930038	2.078887	1.166083	461.785000
17.949466	2.079188	1.167284	462.286000
17.969390	2.079400	1.168464	462.785000
17.989481	2.079900	1.169617	463.285000
18.008441	2.080471	1.170673	463.785000
18.027645	2.081093	1.171839	464.285000
18.046727	2.081646	1.172850	464.785000
18.067255	2.081935	1.173847	465.285000
18.086648	2.082251	1.174915	465.786000
18.105902	2.082775	1.176202	466.285000
18.125845	2.083411	1.177450	466.785000
18.144890	2.084188	1.178723	467.285000
18.164666	2.085264	1.179952	467.785000
18.184496	2.086439	1.181249	468.285000
18.204241	2.087738	1.182551	468.785000
18.223833	2.089138	1.183822	469.285000
18.244126	2.090755	1.185076	469.786000
18.264939	2.092569	1.186316	470.285000
18.285245	2.094403	1.187622	470.785000
18.305524	2.096216	1.188852	471.285000
18.325345	2.097822	1.190127	471.785000
18.346661	2.099310	1.191435	472.285000
18.367131	2.101101	1.192623	472.785000
18.387082	2.103063	1.193847	473.285000
18.408276	2.105147	1.195106	473.785000
18.428636	2.107455	1.196296	474.285000
18.448830	2.109911	1.197376	474.785000
18.469287	2.112221	1.198522	475.285000
18.488229	2.114575	1.199669	475.785000
18.507849	2.116984	1.200841	476.285000
18.527365	2.119379	1.202141	476.785000
18.547751	2.121811	1.203460	477.285000
18.569476	2.124140	1.204687	477.785000
18.590569	2.126564	1.205835	478.285000
18.609442	2.129375	1.207018	478.785000
18.629726	2.132016	1.208205	479.285000
18.650575	2.134551	1.209478	479.785000
18.671209	2.136904	1.210923	480.286000
18.691708	2.139320	1.212365	480.785000
18.712500	2.141543	1.213798	481.285000
18.732846	2.143952	1.215179	481.785000
18.754697	2.146336	1.216570	482.285000
18.775749	2.148799	1.217807	482.785000
18.795282	2.151785	1.219078	483.285000
18.813992	2.154479	1.220461	483.785000
18.832623	2.157219	1.221869	484.285000
18.852578	2.160064	1.223264	484.785000
18.872281	2.162583	1.224653	485.285000
18.891684	2.164671	1.226077	485.786000
18.911869	2.166680	1.227492	486.285000
18.932390	2.168573	1.228925	486.786000
18.953862	2.170219	1.230618	487.285000
18.974664	2.172107	1.232321	487.785000
18.995699	2.174084	1.233956	488.285000
19.016963	2.175849	1.235477	488.785000
19.037834	2.177560	1.236864	489.285000
19.059249	2.179310	1.238269	489.785000
19.080609	2.181183	1.239816	490.285000
19.100458	2.182974	1.241352	490.785000
19.121565	2.184527	1.242645	491.286000
19.143444	2.185735	1.243883	491.785000
19.163971	2.187127	1.245063	492.285000
19.183362	2.188452	1.246637	492.785000
19.204200	2.189352	1.248283	493.285000
19.225726	2.190323	1.250018	493.785000
19.246738	2.190950	1.251713	494.285000
19.266775	2.191106	1.253496	494.785000
19.287615	2.191251	1.255201	495.285000
19.308472	2.191231	1.256850	495.785000
19.329180	2.190763	1.258491	496.285000
19.350620	2.190390	1.260169	496.785000
19.370970	2.189893	1.261803	497.285000
19.392400	2.189064	1.263494	497.785000
19.412861	2.188067	1.265376	498.285000
19.434650	2.186778	1.267196	498.786000
19.456508	2.185436	1.269080	499.285000
19.478270	2.183723	1.270849	499.785000
19.499109	2.181689	1.272419	500.285000
19.519649	2.179429	1.274040	500.785000
19.540810	2.176812	1.275726	501.286000
19.561092	2.174019	1.277450	501.785000
19.581979	2.171131	1.279264	502.286000
19.602949	2.167710	1.280974	502.785000
19.624303	2.164007	1.282843	503.286000
19.645218	2.160374	1.284587	503.785000
19.665488	2.156586	1.286375	504.286000
19.685321	2.152694	1.288188	504.785000
19.705008	2.148631	1.290183	505.285000
19.726889	2.144296	1.292093	505.785000
19.747714	2.139550	1.293868	506.285000
19.768509	2.134412	1.295721	506.785000
19.787741	2.129067	1.297543	507.285000
19.808289	2.123816	1.299555	507.785000
19.829430	2.118395	1.301442	508.285000
19.850154	2.112851	1.303328	508.785000
19.871443	2.106925	1.305171	509.285000
19.891745	2.100864	1.307002	509.785000
19.912683	2.094516	1.308869	510.285000
19.934012	2.087528	1.310704	510.785000
19.956060	2.080268	1.312530	511.286000
19.977425	2.072949	1.314451	511.785000
19.997776	2.065287	1.316463	512.285000
20.017540	2.057609	1.318295	512.785000
20.037461	2.049835	1.320221	513.285000
20.058614	2.041461	1.322246	513.785000
20.079976	2.032735	1.324329	514.285000
20.100103	2.023860	1.326354	514.785000
20.120938	2.014668	1.328377	515.286000
20.140808	2.005549	1.330519	515.786000
20.161728	1.996252	1.332717	516.285000
20.182493	1.986798	1.334875	516.786000
20.201418	1.976967	1.336967	517.285000
20.222876	1.966999	1.338980	517.786000
20.241801	1.956693	1.340913	518.285000
20.263164	1.946032	1.342803	518.786000
20.282111	1.935406	1.344767	519.285000
20.302967	1.924743	1.346761	519.785000
20.323279	1.913578	1.348978	520.285000
20.342676	1.902533	1.351175	520.785000
20.363798	1.890998	1.353189	521.286000
20.384574	1.878671	1.355249	521.785000
20.404294	1.866080	1.357609	522.285000
20.424111	1.853279	1.359727	522.785000
20.445061	1.840680	1.361628	523.285000
20.465732	1.827931	1.363461	523.785000
20.486962	1.815085	1.365501	524.285000
20.510008	1.801651	1.367665	524.785000
20.530402	1.787777	1.369888	525.285000
20.550161	1.774046	1.372211	525.785000
20.570037	1.760234	1.374662	526.286000
20.589344	1.746274	1.377131	526.786000
20.610366	1.731994	1.379371	527.285000
20.631477	1.717298	1.381538	527.786000
20.651496	1.702683	1.383703	528.285000
20.670894	1.687906	1.386014	528.786000
20.691463	1.672881	1.388428	529.285000
20.712704	1.658000	1.390824	529.785000
20.732315	1.643017	1.393374	530.285000
20.752242	1.627859	1.396079	530.785000
20.772296	1.612531	1.398627	531.285000
20.792955	1.597016	1.400936	531.785000
20.814555	1.581311	1.403391	532.285000
20.830923	1.565462	1.405840	532.785000
20.852225	1.549769	1.408056	533.285000
20.873315	1.534281	1.410291	533.785000
20.890514	1.518662	1.412513	534.285000
20.909623	1.503178	1.414889	534.785000
20.930542	1.487490	1.417230	535.285000
20.949253	1.471630	1.419534	535.785000
20.970021	1.455827	1.421804	536.285000
20.991189	1.439590	1.424029	536.786000
21.011245	1.422571	1.426164	537.285000
21.030658	1.404768	1.428362	537.786000
21.047297	1.386898	1.430601	538.285000
21.066257	1.369070	1.432864	538.786000
21.087527	1.350686	1.435162	539.285000
21.109563	1.332053	1.437431	539.785000
21.129542	1.312960	1.439769	540.285000
21.150054	1.293589	1.442092	540.785000
21.170401	1.273720	1.444550	541.285000
21.188708	1.253357	1.446926	541.785000
21.209790	1.232334	1.449213	542.285000
21.228122	1.210733	1.451411	542.785000
21.248693	1.188497	1.453851	543.286000
21.268043	1.165718	1.456324	543.785000
21.290619	1.142336	1.458674	544.285000
21.312177	1.118423	1.460812	544.785000
21.334455	1.094158	1.462981	545.285000
21.351272	1.069320	1.465355	545.785000
21.368146	1.043610	1.467606	546.285000
21.386369	1.017623	1.469749	546.786000
21.406290	0.991717	1.471909	547.285000
21.426980	0.966055	1.474083	547.785000
21.444956	0.940481	1.476258	548.285000
21.465689	0.914571	1.478340	548.785000
21.484329	0.888595	1.480517	549.285000
21.505396	0.862478	1.482417	549.785000
21.525742	0.836345	1.484421	550.285000
21.544067	0.809827	1.486351	550.785000
21.563409	0.783007	1.488133	551.285000
21.585370	0.756146	1.489891	551.785000
21.608237	0.729382	1.491490	552.286000
21.625901	0.702438	1.492985	552.785000
21.644569	0.675563	1.494508	553.285000
21.664863	0.648672	1.495988	553.785000
21.684009	0.622134	1.497659	554.285000
21.704236	0.596251	1.499245	554.785000
21.723448	0.570490	1.500616	555.285000
21.743010	0.545097	1.501969	555.785000
21.761279	0.520217	1.503328	556.286000
21.781566	0.496325	1.504627	556.785000
21.801022	0.472759	1.505764	557.285000
21.821437	0.449689	1.506640	557.785000
21.840902	0.426912	1.507391	558.285000
21.860494	0.404635	1.508185	558.785000
21.880752	0.382929	1.508940	559.285000
21.899758	0.362010	1.509715	559.785000
21.920205	0.342009	1.510236	560.285000
21.940788	0.323081	1.510749	560.785000
21.958042	0.304674	1.511080	561.285000
21.976330	0.287224	1.511377	561.785000
21.996310	0.271046	1.511705	562.286000
22.014349	0.255829	1.511895	562.785000
22.031960	0.241601	1.511970	563.285000
22.051378	0.228527	1.512059	563.785000
22.072786	0.216526	1.512111	564.285000
22.092788	0.205688	1.512222	564.785000
22.112721	0.195587	1.512209	565.286000
22.132693	0.187601	1.512220	565.785000
22.152094	0.180689	1.512375	566.285000
22.171726	0.174728	1.512520	566.785000
22.191758	0.169746	1.512528	567.285000
22.211260	0.166044	1.512487	567.785000
22.232270	0.163633	1.512572	568.285000
22.253205	0.162165	1.512753	568.785000
22.272802	0.161530	1.512843	569.285000
22.292591	0.161200	1.512875	569.785000
22.312967	0.161738	1.512921	570.285000
22.333041	0.162439	1.512889	570.785000
22.352580	0.163657	1.512863	571.285000
22.373281	0.166127	1.512715	571.785000
22.393090	0.169132	1.512614	572.286000
22.413520	0.172491	1.512491	572.785000
22.432449	0.176295	1.512393	573.285000
22.452396	0.179677	1.512395	573.785000
22.473181	0.183512	1.512374	574.285000
22.493917	0.187685	1.512453	574.785000
22.513039	0.192253	1.512465	575.286000
22.532919	0.197440	1.512425	575.785000
22.552408	0.203317	1.512338	576.285000
22.573834	0.209554	1.512421	576.785000
22.594090	0.215488	1.512706	577.285000
22.613172	0.221386	1.512711	577.785000
22.632551	0.227987	1.512683	578.285000
22.652168	0.234469	1.512605	578.786000
22.674187	0.241105	1.512442	579.285000
22.694753	0.248416	1.512356	579.785000
22.715438	0.256129	1.512394	580.285000
22.735846	0.264223	1.512494	580.785000
22.757343	0.272611	1.512676	581.285000
22.779092	0.281555	1.512833	581.785000
22.799924	0.290934	1.512809	582.285000
22.821014	0.300570	1.512772	582.785000
22.843679	0.310933	1.512692	583.285000
22.865962	0.321804	1.512595	583.785000
22.887026	0.333348	1.512543	584.285000
22.907515	0.346193	1.512443	584.785000
22.927521	0.359860	1.512165	585.285000
22.948806	0.373829	1.512030	585.785000
22.969883	0.388234	1.512079	586.285000
22.990172	0.403332	1.512211	586.785000
23.009330	0.419321	1.512122	587.285000
23.029998	0.436041	1.511868	587.786000
23.052586	0.453759	1.511529	588.285000
23.074231	0.471963	1.511265	588.786000
23.093399	0.490648	1.511132	589.285000
23.112439	0.510427	1.511052	589.785000
23.132226	0.531015	1.510760	590.285000
23.153212	0.552599	1.510458	590.786000
23.173445	0.575046	1.510427	591.285000
23.194020	0.598298	1.510353	591.786000
23.214189	0.622341	1.510006	592.285000
23.234692	0.647147	1.509832	592.786000
23.256259	0.673120	1.509713	593.285000
23.276552	0.700035	1.509454	593.785000
23.297911	0.728102	1.509077	594.285000
23.319857	0.756738	1.508718	594.785000
23.342353	0.786243	1.508563	595.285000
23.363549	0.816835	1.508491	595.785000
23.384864	0.848740	1.508368	596.285000
23.406417	0.881629	1.508227	596.785000
23.427140	0.915294	1.508151	597.285000
23.448427	0.950020	1.508211	597.785000
23.468417	0.985768	1.508231	598.285000
23.489639	1.022399	1.508402	598.785000
23.512369	1.060127	1.508535	599.285000
23.535436	1.098103	1.508676	599.785000
23.557931	1.136878	1.508855	600.285000
23.578973	1.176218	1.509040	600.786000
23.600256	1.216057	1.509290	601.285000
23.620965	1.256412	1.509560	601.785000
23.643071	1.296994	1.509841	602.285000
23.665962	1.337314	1.510123	602.786000
23.688583	1.377597	1.510468	603.285000
23.710706	1.418117	1.511004	603.785000
23.731675	1.458792	1.511727	604.285000
23.751718	1.499745	1.512312	604.785000
23.771209	1.540829	1.512898	605.285000
23.791299	1.581752	1.513777	605.785000
23.812330	1.621967	1.514704	606.285000
23.833786	1.661063	1.515715	606.785000
23.854353	1.700096	1.516935	607.285000
23.873559	1.738085	1.518140	607.785000
23.893393	1.775188	1.519174	608.285000
23.913425	1.812440	1.520234	608.785000
23.934450	1.848709	1.521228	609.285000
23.955812	1.883974	1.522241	609.786000
23.976592	1.918054	1.523419	610.285000
23.997511	1.951297	1.524510	610.785000
24.019191	1.984525	1.525640	611.285000
24.040873	2.017892	1.526693	611.785000
24.062059	2.050638	1.527816	612.285000
24.082773	2.082230	1.528907	612.785000
24.103039	2.112739	1.530098	613.285000
24.125268	2.142934	1.531480	613.785000
24.147314	2.172737	1.532801	614.285000
24.168800	2.202338	1.533978	614.785000
24.188589	2.231563	1.535232	615.285000
24.209366	2.260409	1.536545	615.785000
24.231570	2.288639	1.537981	616.285000
24.253101	2.315922	1.539373	616.785000
24.272901	2.341978	1.540818	617.285000
24.293434	2.367802	1.542167	617.785000
24.316104	2.393438	1.543573	618.285000
24.337997	2.418362	1.544942	618.785000
24.361115	2.442691	1.546355	619.285000
24.380712	2.466240	1.547847	619.785000
24.400235	2.489711	1.549307	620.285000
24.423114	2.512795	1.550840	620.785000
24.445173	2.535765	1.552341	621.285000
24.466433	2.558543	1.553953	621.785000
24.486345	2.579895	1.555473	622.285000
24.505640	2.600130	1.556993	622.785000
24.527026	2.619535	1.558408	623.285000
24.547736	2.638860	1.559850	623.785000
24.569842	2.658154	1.561403	624.285000
24.592291	2.676472	1.563036	624.785000
24.614033	2.694860	1.564505	625.286000
24.636069	2.713908	1.565999	625.785000
24.656923	2.731712	1.567512	626.285000
24.677934	2.748347	1.569119	626.785000
24.698132	2.764732	1.570720	627.286000
24.717449	2.780936	1.572259	627.785000
24.737891	2.796821	1.573876	628.285000
24.758963	2.812308	1.575538	628.785000
24.779090	2.827595	1.577294	629.285000
24.801249	2.842746	1.579046	629.785000
24.822751	2.858102	1.580694	630.285000
24.843345	2.873024	1.582211	630.785000
24.863758	2.887545	1.583677	631.285000
24.884841	2.901168	1.585158	631.785000
24.906578	2.914344	1.586710	632.285000
24.927325	2.926757	1.588501	632.785000
24.947174	2.938824	1.590363	633.285000
24.966547	2.951140	1.592001	633.785000
24.986889	2.963775	1.593508	634.286000
25.007857	2.975995	1.595150	634.785000
25.028265	2.987496	1.596918	635.285000
25.048327	2.999145	1.598518	635.785000
25.068255	3.010433	1.599998	636.286000
25.089202	3.021361	1.601588	636.785000
25.112178	3.031493	1.603214	637.286000
25.132008	3.041188	1.604654	637.785000
25.151957	3.050978	1.606102	638.286000
25.174161	3.061212	1.607578	638.785000
25.194458	3.071444	1.609069	639.285000
25.217553	3.080880	1.610628	639.785000
25.237600	3.090026	1.612272	640.285000
25.256854	3.099087	1.613814	640.785000
25.277398	3.108397	1.615443	641.285000
25.297266	3.118182	1.617094	641.786000
25.320129	3.127477	1.618718	642.285000
25.340747	3.136747	1.620472	642.785000
25.362122	3.145820	1.622324	643.285000
25.380463	3.154252	1.623965	643.785000
25.400829	3.162062	1.625526	644.285000
25.421509	3.169456	1.627170	644.785000
25.442715	3.176446	1.628716	645.285000
25.462123	3.183520	1.630335	645.785000
25.483598	3.190712	1.631876	646.285000
25.503323	3.198266	1.633472	646.785000
25.521741	3.205200	1.635082	647.285000
25.542151	3.211963	1.636776	647.785000
25.563196	3.218923	1.638467	648.285000
25.583652	3.225638	1.639993	648.785000
25.604776	3.232238	1.641537	649.285000
25.624728	3.238134	1.642886	649.786000
25.646679	3.244115	1.644238	650.285000
25.668115	3.249842	1.645593	650.785000
25.689404	3.255391	1.647110	651.285000
25.711160	3.261853	1.648768	651.785000
25.732807	3.268305	1.650469	652.285000
25.753397	3.273969	1.652051	652.785000
25.776498	3.278909	1.653712	653.285000
25.796442	3.283964	1.655328	653.785000
25.817725	3.289142	1.657076	654.285000
25.838428	3.294339	1.658728	654.785000
25.858141	3.299681	1.660400	655.285000
25.878631	3.305524	1.662204	655.785000
25.900442	3.309800	1.663873	656.285000
25.924457	3.313603	1.665285	656.785000
25.945619	3.317773	1.666927	657.286000
25.966282	3.322551	1.668649	657.785000
25.988138	3.326921	1.670368	658.285000
26.002792	3.330855	1.672116	658.785000
26.025549	3.334497	1.673947	659.285000
26.046140	3.337329	1.675645	659.785000
26.067171	3.340359	1.677256	660.285000
26.088993	3.343727	1.678787	660.785000
26.108701	3.346379	1.680429	661.285000
26.127914	3.348914	1.682231	661.785000
26.147226	3.352078	1.683929	662.285000
26.164676	3.355070	1.685591	662.785000
26.184320	3.356988	1.687285	663.285000
26.200381	3.358991	1.688993	663.785000
26.221452	3.361137	1.690666	664.285000
26.243367	3.363446	1.692125	664.785000
26.265180	3.366135	1.693593	665.286000
26.290156	3.369203	1.695095	665.785000
26.306671	3.371473	1.696514	666.285000
26.326592	3.373329	1.698008	666.785000
26.350955	3.375178	1.699573	667.285000
26.377298	3.376756	1.701177	667.785000
26.387811	3.378221	1.702936	668.285000
26.408319	3.379944	1.704617	668.785000
26.423526	3.380551	1.706273	669.285000
26.441035	3.381078	1.707922	669.786000
26.464914	3.382430	1.709647	670.285000
26.487630	3.383129	1.711244	670.785000
26.501960	3.383825	1.712876	671.285000
26.525449	3.385560	1.714634	671.786000
26.546183	3.387062	1.716304	672.285000
26.569009	3.386877	1.717944	672.785000
26.588797	3.386822	1.719651	673.285000
26.608862	3.386291	1.721128	673.785000
26.629849	3.385494	1.722685	674.285000
26.649980	3.386338	1.724359	674.785000
26.670491	3.386997	1.726204	675.285000
26.692549	3.387264	1.727969	675.785000
26.710115	3.387562	1.729744	676.285000
26.730530	3.385942	1.731461	676.785000
26.748352	3.383886	1.733152	677.285000
26.772321	3.382914	1.734649	677.785000
26.792941	3.381123	1.736155	678.286000
26.811432	3.379395	1.737884	678.785000
26.831528	3.378735	1.739724	679.285000
26.855017	3.377954	1.741521	679.785000
26.875273	3.376923	1.743232	680.285000
26.892047	3.376005	1.744943	680.785000
26.910553	3.373918	1.746662	681.285000
26.930835	3.372093	1.748361	681.785000
26.953052	3.369521	1.749869	682.285000
26.972772	3.366433	1.751578	682.785000
26.993799	3.364688	1.753250	683.285000
27.014919	3.363238	1.754848	683.786000
27.035737	3.360734	1.756490	684.285000
27.058394	3.358775	1.758298	684.785000
27.080338	3.356224	1.760012	685.285000
27.100804	3.351972	1.761742	685.785000
27.121909	3.348164	1.763486	686.285000
27.145715	3.344559	1.765383	686.785000
27.165735	3.342152	1.767156	687.285000
27.186975	3.340096	1.769044	687.785000
27.207152	3.336608	1.770992	688.286000
27.227336	3.332779	1.772951	688.785000
27.248514	3.329169	1.774739	689.285000
27.269542	3.325271	1.776601	689.785000
27.292035	3.322145	1.778497	690.285000
27.312163	3.317810	1.780043	690.786000
27.333882	3.313587	1.781595	691.285000
27.354581	3.310341	1.783086	691.785000
27.376276	3.305462	1.784846	692.285000
27.396416	3.300659	1.786913	692.786000
27.416445	3.295987	1.788935	693.285000
27.437488	3.290686	1.790677	693.785000
27.457798	3.286272	1.792696	694.285000
27.479491	3.281016	1.794694	694.785000
27.501635	3.275640	1.796467	695.285000
27.525136	3.271135	1.798327	695.785000
27.546975	3.265495	1.800119	696.286000
27.566351	3.260374	1.801982	696.785000
27.587039	3.255219	1.803729	697.285000
27.609293	3.248826	1.805521	697.785000
27.631467	3.242960	1.807446	698.286000
27.652972	3.235945	1.809339	698.785000
27.673383	3.229530	1.811295	699.285000
27.693908	3.223502	1.813227	699.785000
27.715110	3.216970	1.815207	700.285000
27.736942	3.211693	1.817360	700.785000
27.758057	3.204944	1.819313	701.285000
27.777834	3.198387	1.821087	701.786000
27.797339	3.191926	1.822824	702.285000
27.817626	3.184410	1.824596	702.785000
27.839393	3.178714	1.826597	703.285000
27.860003	3.171750	1.828549	703.785000
27.880508	3.164868	1.830394	704.285000
27.900841	3.158044	1.832335	704.785000
27.921036	3.149632	1.834155	705.285000
27.942633	3.142672	1.836033	705.785000
27.963318	3.134541	1.837869	706.286000
27.981803	3.127021	1.839814	706.785000
28.001608	3.120064	1.841722	707.285000
28.023400	3.111923	1.843426	707.785000
28.044295	3.104965	1.845266	708.285000
28.064930	3.096585	1.847194	708.785000
28.085531	3.088405	1.849194	709.285000
28.105968	3.080718	1.851191	709.785000
28.126806	3.072704	1.853175	710.285000
28.146930	3.065566	1.855217	710.785000
28.167481	3.056924	1.857210	711.286000
28.187848	3.049118	1.859123	711.785000
28.208204	3.040093	1.860702	712.285000
28.229120	3.030464	1.862322	712.785000
28.249505	3.022119	1.864122	713.285000
28.270055	3.013069	1.865954	713.785000
28.291829	3.004423	1.867716	714.285000
28.314169	2.994445	1.869478	714.785000
28.337219	2.985485	1.871318	715.285000
28.358018	2.977473	1.873223	715.785000
28.378748	2.967732	1.875152	716.285000
28.399350	2.958974	1.877196	716.785000
28.420232	2.948130	1.879146	717.286000
28.441119	2.938211	1.881006	717.785000
28.462270	2.927413	1.882869	718.285000
28.481888	2.916232	1.884811	718.785000
28.504285	2.906807	1.886665	719.286000
28.525237	2.896411	1.888421	719.785000
28.544662	2.886911	1.890276	720.285000
28.564734	2.875767	1.892208	720.785000
28.584909	2.864400	1.894076	721.285000
28.606313	2.853699	1.895893	721.786000
28.627141	2.841372	1.897805	722.285000
28.647128	2.829397	1.899735	722.785000
28.668140	2.816906	1.901629	723.285000
28.689404	2.806122	1.903477	723.785000
28.711317	2.794707	1.905149	724.285000
28.732576	2.783584	1.906691	724.786000
28.755626	2.772173	1.908190	725.285000
28.776456	2.760110	1.909821	725.786000
28.797261	2.749222	1.911546	726.286000
28.820624	2.737344	1.913388	726.785000
28.840538	2.726626	1.915368	727.285000
28.861732	2.714294	1.917198	727.785000
28.883385	2.702422	1.919061	728.285000
28.903809	2.689597	1.920813	728.785000
28.925963	2.675990	1.922457	729.286000
28.949097	2.663486	1.924125	729.785000
28.970130	2.649885	1.925662	730.285000
28.990611	2.638024	1.927136	730.785000
29.012148	2.624281	1.928500	731.285000
29.032452	2.612004	1.930044	731.785000
29.053317	2.599304	1.931596	732.285000
29.075616	2.586914	1.933364	732.786000
29.096689	2.574826	1.935064	733.285000
29.118794	2.561726	1.936697	733.785000
29.141614	2.549212	1.938245	734.285000
29.162165	2.535374	1.939621	734.785000
29.183498	2.523446	1.941137	735.285000
29.204034	2.510586	1.942654	735.785000
29.225978	2.498914	1.944309	736.285000
29.245510	2.486309	1.945603	736.785000
29.265298	2.473689	1.947072	737.285000
29.286785	2.460821	1.948203	737.785000
29.308364	2.447472	1.949426	738.286000
29.328586	2.435911	1.950780	738.785000
29.349582	2.422421	1.951867	739.286000
29.368803	2.410692	1.952986	739.785000
29.389419	2.397477	1.953954	740.286000
29.411062	2.385632	1.955167	740.785000
29.432332	2.373054	1.956405	741.286000
29.453340	2.361308	1.957657	741.785000
29.473508	2.349891	1.958864	742.285000
29.494916	2.339595	1.960076	742.786000
29.514961	2.330147	1.961185	743.285000
29.536239	2.319162	1.962354	743.786000
29.557067	2.309196	1.963605	744.285000
29.577429	2.296805	1.964584	744.785000
29.598595	2.286026	1.965585	745.285000
29.619679	2.274976	1.966652	745.785000
29.640002	2.265070	1.967683	746.285000
29.659403	2.254412	1.968514	746.785000
29.680274	2.244657	1.969328	747.286000
29.702024	2.235542	1.970103	747.785000
29.722700	2.226318	1.971008	748.285000
29.744014	2.218261	1.971972	748.785000
29.764233	2.208865	1.972937	749.285000
29.785886	2.201055	1.973844	749.785000
29.807909	2.192919	1.974802	750.285000
29.829535	2.184084	1.975532	750.785000
29.850821	2.175059	1.976190	751.285000
29.872443	2.166597	1.977000	751.785000
29.896404	2.158374	1.977772	752.286000
29.919858	2.150993	1.978663	752.785000
29.940527	2.143981	1.979505	753.285000
29.961073	2.137118	1.980273	753.785000
29.983356	2.130962	1.980809	754.285000
30.005502	2.125033	1.981213	754.785000
30.025869	2.119188	1.981901	755.285000
30.047970	2.113657	1.982500	755.785000
30.069936	2.108474	1.983051	756.285000
30.089681	2.103660	1.983522	756.786000
30.111038	2.099479	1.983980	757.285000
30.131702	2.094987	1.984346	757.785000
30.153244	2.090882	1.984889	758.285000
30.175084	2.086928	1.985594	758.785000
30.196761	2.084037	1.986276	759.286000
30.218166	2.081473	1.986912	759.785000
30.240380	2.078856	1.987429	760.285000
30.262756	2.076147	1.988003	760.785000
30.284965	2.073921	1.988479	761.285000
30.308319	2.072791	1.988992	761.785000
30.328403	2.072708	1.989557	762.285000
30.350033	2.073292	1.990227	762.785000
30.370855	2.073812	1.990852	763.285000
30.393576	2.074348	1.991411	763.786000
30.413500	2.075003	1.991795	764.285000
30.433722	2.076164	1.992106	764.785000
30.453427	2.077454	1.992278	765.285000
30.475923	2.078753	1.992213	765.785000
30.498265	2.080255	1.992280	766.285000
30.517164	2.082629	1.992534	766.785000
30.537369	2.085432	1.992832	767.285000
30.558928	2.088986	1.993264	767.785000
30.579217	2.093229	1.993598	768.285000
30.599349	2.098062	1.993906	768.785000
30.623620	2.102960	1.994259	769.286000
30.642902	2.107974	1.994617	769.785000
30.662655	2.113556	1.994954	770.285000
30.685446	2.119335	1.995222	770.785000
30.704713	2.124943	1.995607	771.285000
30.724232	2.130855	1.995923	771.785000
30.744637	2.137458	1.996297	772.285000
30.765606	2.144866	1.996596	772.785000
30.789108	2.152946	1.996876	773.285000
30.811711	2.161571	1.997139	773.785000
30.832538	2.170180	1.997536	774.285000
30.848412	2.178927	1.997918	774.785000
30.873337	2.188111	1.998348	775.285000
30.892652	2.197940	1.998889	775.785000
30.912872	2.208389	1.999320	776.285000
30.930956	2.219004	1.999577	776.785000
30.944012	2.230018	1.999880	777.285000
30.965240	2.241160	2.000162	777.786000
30.985997	2.252259	2.000558	778.285000
31.004655	2.263308	2.001022	778.785000
31.024916	2.275007	2.001420	779.285000
31.044132	2.286715	2.001791	779.785000
31.066229	2.298279	2.002224	780.286000
31.087558	2.309978	2.002687	780.785000
31.109515	2.322555	2.002978	781.285000
31.132888	2.335849	2.003307	781.785000
31.163892	2.349962	2.003748	782.285000
31.175538	2.364555	2.004359	782.785000
31.193639	2.379661	2.004886	783.285000
31.211745	2.394893	2.005442	783.786000
31.232612	2.410940	2.005867	784.285000
31.256693	2.426472	2.006401	784.786000
31.272919	2.442285	2.007042	785.285000
31.298167	2.458322	2.007730	785.785000
31.322618	2.474781	2.008420	786.285000
31.338857	2.491702	2.009075	786.786000
31.361541	2.508934	2.009752	787.285000
31.381143	2.526611	2.010225	787.786000
31.400373	2.544696	2.010770	788.285000
31.420104	2.562891	2.011442	788.785000
31.442291	2.581301	2.012163	789.285000
31.465605	2.599781	2.012920	789.785000
31.482189	2.618183	2.013723	790.285000
31.502409	2.636586	2.014571	790.785000
31.522889	2.655209	2.015608	791.285000
31.543828	2.674070	2.016599	791.785000
31.565377	2.693677	2.017369	792.285000
31.589495	2.713374	2.017952	792.786000
31.600870	2.733357	2.018630	793.285000
31.620833	2.753430	2.019357	793.785000
31.641876	2.773379	2.020090	794.285000
31.660669	2.792957	2.021034	794.785000
31.679500	2.812569	2.021965	795.285000
31.699348	2.832314	2.022888	795.785000
31.723084	2.851712	2.023892	796.285000
31.745028	2.870758	2.024934	796.785000
31.761476	2.889779	2.025942	797.285000
31.784192	2.909001	2.027026	797.785000
31.803231	2.928023	2.028193	798.285000
31.827518	2.947205	2.029259	798.785000
31.850898	2.966545	2.030399	799.285000
31.874595	2.986262	2.031571	799.785000
31.895608	3.006281	2.032800	800.285000
31.913299	3.026803	2.034120	800.785000
31.937900	3.047313	2.035613	801.285000
31.960980	3.067960	2.037023	801.785000
31.979169	3.088237	2.038304	802.286000
31.999881	3.108244	2.039391	802.785000
32.023988	3.127972	2.040545	803.285000
32.043643	3.147451	2.041871	803.785000
32.061985	3.166854	2.043292	804.285000
32.081823	3.185656	2.044659	804.785000
32.102202	3.204303	2.045870	805.285000
32.121685	3.222394	2.047219	805.785000
32.142899	3.240339	2.048543	806.285000
32.165503	3.258184	2.049951	806.785000
32.185879	3.276082	2.051341	807.285000
32.203490	3.293804	2.052883	807.785000
32.224380	3.311670	2.054419	808.285000
32.244934	3.328949	2.055892	808.785000
32.266793	3.345695	2.057322	809.285000
32.287286	3.362156	2.058891	809.785000
32.308037	3.378119	2.060499	810.285000
32.326760	3.393833	2.062194	810.785000
32.344640	3.409150	2.063709	811.285000
32.365549	3.424304	2.065042	811.785000
32.386450	3.438567	2.066478	812.286000
32.406830	3.452362	2.067970	812.785000
32.425963	3.465637	2.069461	813.285000
32.446704	3.479262	2.071106	813.785000
32.465780	3.493047	2.072623	814.285000
32.485709	3.506474	2.073988	814.785000
32.505581	3.519296	2.075453	815.285000
32.524528	3.531277	2.076858	815.786000
32.546694	3.543127	2.078227	816.285000
32.567369	3.554707	2.079784	816.785000
32.587192	3.566455	2.081521	817.285000
32.608044	3.578135	2.083002	817.785000
32.628762	3.589684	2.084650	818.285000
32.649457	3.601036	2.086271	818.785000
32.668952	3.611584	2.087867	819.285000
32.688185	3.622245	2.089443	819.785000
32.710223	3.632679	2.091082	820.285000
32.731179	3.643148	2.092779	820.785000
32.751246	3.653020	2.094406	821.286000
32.771401	3.662817	2.095926	821.785000
32.790595	3.672138	2.097514	822.285000
32.812848	3.680547	2.099211	822.785000
32.833646	3.688990	2.100987	823.285000
32.854542	3.697009	2.102521	823.785000
32.874853	3.705200	2.104054	824.285000
32.894794	3.713081	2.105670	824.785000
32.915471	3.720616	2.107393	825.285000
32.934991	3.727997	2.109135	825.785000
32.956342	3.735029	2.110882	826.285000
32.977499	3.742148	2.112568	826.785000
32.998376	3.749277	2.114095	827.285000
33.019922	3.756486	2.115696	827.785000
33.040475	3.763376	2.117388	828.285000
33.061157	3.770429	2.119087	828.785000
33.080757	3.777872	2.120814	829.286000
33.101369	3.784732	2.122485	829.785000
33.120475	3.791167	2.124184	830.285000
33.141157	3.796638	2.125968	830.785000
33.161748	3.802027	2.127794	831.286000
33.181888	3.807079	2.129642	831.785000
33.202285	3.812338	2.131237	832.286000
33.223003	3.817866	2.132928	832.785000
33.242420	3.822947	2.134509	833.285000
33.262477	3.828065	2.135988	833.785000
33.284006	3.832798	2.137517	834.285000
33.306291	3.837832	2.139116	834.785000
33.328351	3.842703	2.140637	835.285000
33.348760	3.847029	2.142231	835.785000
33.369626	3.851251	2.143695	836.285000
33.390700	3.854708	2.145230	836.785000
33.411656	3.858526	2.146587	837.285000
33.432181	3.862650	2.148084	837.785000
33.452783	3.866746	2.149644	838.285000
33.474469	3.871081	2.151303	838.785000
33.496747	3.874531	2.153060	839.286000
33.518127	3.878098	2.154899	839.785000
33.538511	3.881437	2.156770	840.285000
33.558162	3.884383	2.158451	840.785000
33.579744	3.887970	2.160181	841.285000
33.600852	3.891390	2.161904	841.785000
33.622016	3.894847	2.163481	842.286000
33.642710	3.898089	2.165012	842.785000
33.665320	3.900585	2.166605	843.285000
33.686975	3.903124	2.168197	843.785000
33.708298	3.905523	2.169679	844.285000
33.728301	3.908177	2.171180	844.785000
33.749029	3.911359	2.172859	845.285000
33.770652	3.913881	2.174502	845.786000
33.793504	3.916438	2.175929	846.285000
33.815251	3.918428	2.177659	846.785000
33.836718	3.920463	2.179323	847.285000
33.858143	3.922587	2.181074	847.785000
33.879790	3.924279	2.182761	848.285000
33.902213	3.926487	2.184407	848.785000
33.923837	3.927982	2.186369	849.285000
33.944525	3.928962	2.188319	849.785000
33.967527	3.930357	2.189859	850.286000
33.990555	3.931438	2.191437	850.785000
34.010941	3.932686	2.192919	851.285000
34.032962	3.933453	2.194408	851.785000
34.054179	3.933621	2.196273	852.286000
34.076130	3.933939	2.198387	852.785000
34.098163	3.934062	2.200332	853.285000
34.121698	3.933936	2.202054	853.785000
34.143295	3.933855	2.203762	854.286000
34.166510	3.933865	2.205292	854.785000
34.188421	3.934282	2.206876	855.285000
34.209681	3.934522	2.208478	855.785000
34.230602	3.934595	2.209989	856.285000
34.251829	3.935025	2.211649	856.785000
34.273116	3.934648	2.213187	857.285000
34.297011	3.933691	2.214865	857.785000
34.319039	3.933047	2.216674	858.285000
34.339515	3.932509	2.218668	858.786000
34.360683	3.932186	2.220669	859.285000
34.383310	3.931714	2.222573	859.785000
34.405463	3.930406	2.224377	860.286000
34.427156	3.929060	2.226037	860.785000
34.448270	3.927962	2.227558	861.286000
34.471808	3.926582	2.228956	861.785000
34.494738	3.925386	2.230360	862.285000
34.515909	3.924154	2.232003	862.785000
34.537912	3.923305	2.233704	863.285000
34.560086	3.923073	2.235490	863.785000
34.583167	3.922820	2.237234	864.285000
34.605767	3.922200	2.238955	864.785000
34.628048	3.921359	2.240589	865.285000
34.649193	3.920168	2.242304	865.786000
34.670929	3.919231	2.244073	866.285000
34.691575	3.918422	2.245983	866.785000
34.712386	3.917363	2.247752	867.285000
34.732861	3.916111	2.249394	867.785000
34.755191	3.914756	2.251001	868.285000
34.777127	3.912841	2.252606	868.785000
34.798569	3.911010	2.254214	869.285000
34.820712	3.909099	2.255934	869.785000
34.842611	3.906810	2.257574	870.285000
34.863962	3.904901	2.259200	870.785000
34.886171	3.903231	2.260828	871.285000
34.906519	3.901406	2.262539	871.785000
34.928301	3.899736	2.264226	872.285000
34.949900	3.898017	2.266115	872.785000
34.971387	3.895598	2.267947	873.285000
34.993759	3.893104	2.269908	873.785000
35.015149	3.890868	2.271714	874.285000
35.037537	3.888514	2.273286	874.785000
35.059338	3.886425	2.274962	875.285000
35.081898	3.884329	2.276541	875.785000
35.102366	3.882339	2.278199	876.285000
35.123293	3.880245	2.279791	876.785000
35.143078	3.877476	2.281373	877.285000
35.164523	3.874409	2.283146	877.785000
35.186118	3.871577	2.284969	878.285000
35.207727	3.868680	2.286714	878.785000
35.230191	3.865597	2.288295	879.285000
35.250830	3.862931	2.289803	879.785000
35.271811	3.860334	2.291426	880.285000
35.291850	3.857331	2.293068	880.785000
35.313551	3.853563	2.294613	881.285000
35.334123	3.849514	2.296132	881.785000
35.358224	3.845381	2.297588	882.285000
35.378973	3.841508	2.299119	882.785000
35.400677	3.837847	2.300720	883.286000
35.425899	3.834470	2.302270	883.785000
35.445441	3.831013	2.303946	884.285000
35.467972	3.827091	2.305624	884.785000
35.488907	3.823038	2.307252	885.285000
35.509284	3.818902	2.308673	885.785000
35.532594	3.814491	2.310062	886.285000
35.554649	3.810028	2.311703	886.785000
35.577878	3.805077	2.313648	887.285000
35.600278	3.799948	2.315665	887.785000
35.619397	3.794668	2.317295	888.285000
35.642197	3.788142	2.318658	888.785000
35.664304	3.781476	2.320013	889.285000
35.682572	3.773266	2.321724	889.786000
35.704195	3.767567	2.323549	890.285000
35.730499	3.764839	2.325413	890.785000
35.750517	3.758590	2.327166	891.285000
35.767503	3.751970	2.328731	891.785000
35.787170	3.748599	2.330226	892.285000
35.808057	3.741443	2.331638	892.785000
35.829764	3.734070	2.333421	893.285000
35.854797	3.731882	2.335305	893.785000
35.882773	3.727810	2.336891	894.285000
35.898707	3.720800	2.338408	894.785000
35.922281	3.716822	2.339884	895.285000
35.947617	3.711618	2.341501	895.786000
35.965737	3.702053	2.343070	896.285000
35.982307	3.696212	2.344680	896.785000
36.002708	3.692975	2.346366	897.285000
36.021133	3.684511	2.347848	897.785000
36.043280	3.677020	2.349078	898.285000
36.062692	3.673870	2.350536	898.785000
36.083084	3.669107	2.352511	899.285000
36.102423	3.662523	2.354396	899.785000
36.121528	3.657681	2.355974	900.285000
36.142391	3.653484	2.357667	900.786000
36.168102	3.646628	2.359330	901.285000
36.185972	3.638291	2.360927	901.785000
36.215738	3.632498	2.362542	902.285000
36.238080	3.626768	2.364194	902.785000
36.247540	3.619678	2.365894	903.286000
36.276820	3.615139	2.367520	903.785000
36.299402	3.609347	2.369316	904.285000
36.316605	3.600413	2.371140	904.785000
36.336745	3.595085	2.372988	905.286000
36.360445	3.592367	2.374691	905.785000
36.382443	3.584953	2.376432	906.285000
36.405904	3.577190	2.377928	906.785000
36.428033	3.573518	2.379366	907.285000
36.448044	3.566429	2.380825	907.785000
36.467780	3.555233	2.382301	908.285000
36.487078	3.549068	2.383727	908.786000
36.509861	3.545422	2.385292	909.285000
36.533238	3.536913	2.386965	909.786000
36.552232	3.528587	2.388443	910.285000
36.570104	3.525425	2.390018	910.785000
36.585790	3.520440	2.391735	911.285000
36.606541	3.511541	2.393394	911.785000
36.621813	3.507093	2.394967	912.286000
36.641866	3.504876	2.396411	912.785000
36.662213	3.497335	2.397909	913.286000
36.684413	3.489072	2.399601	913.785000
36.703162	3.486075	2.401270	914.285000
36.730377	3.481492	2.403096	914.785000
36.747109	3.472199	2.404554	915.285000
36.767991	3.464862	2.405788	915.785000
36.793486	3.462065	2.407307	916.285000
36.814954	3.455685	2.408809	916.785000
36.835059	3.444728	2.410291	917.285000
36.857358	3.436152	2.411906	917.785000
36.878680	3.428792	2.413759	918.285000
36.899469	3.420283	2.415565	918.785000
36.921195	3.412221	2.417212	919.285000
36.941638	3.404437	2.418967	919.785000
36.968570	3.396286	2.420547	920.285000
36.986924	3.388301	2.422248	920.785000
37.008694	3.380449	2.423871	921.285000
37.032388	3.371706	2.425522	921.785000
37.055269	3.361913	2.427096	922.286000
37.073818	3.352533	2.428552	922.785000
37.098746	3.344526	2.430054	923.286000
37.116105	3.335869	2.431730	923.785000
37.139011	3.326204	2.433636	924.285000
37.159498	3.315966	2.435466	924.785000
37.174636	3.305896	2.437256	925.285000
37.198875	3.296992	2.439015	925.785000
37.218946	3.288652	2.440734	926.286000
37.239958	3.280257	2.442584	926.785000
37.257117	3.271676	2.444202	927.285000
37.279889	3.263424	2.445592	927.785000
37.303168	3.255147	2.447039	928.285000
37.322321	3.247122	2.448499	928.785000
37.341639	3.239438	2.450085	929.285000
37.362586	3.232508	2.451692	929.785000
37.381262	3.225271	2.453191	930.285000
37.404783	3.217244	2.454682	930.785000
37.422307	3.209248	2.456291	931.285000
37.442581	3.201947	2.457950	931.785000
37.464398	3.194742	2.459567	932.285000
37.484366	3.186760	2.461271	932.785000
37.505969	3.178558	2.462993	933.285000
37.526587	3.170838	2.464673	933.785000
37.546469	3.163085	2.466284	934.285000
37.565232	3.154882	2.467895	934.785000
37.584769	3.147131	2.469559	935.285000
37.606723	3.139750	2.471204	935.785000
37.626854	3.132257	2.472813	936.285000
37.647788	3.124955	2.474313	936.786000
37.667440	3.117897	2.475801	937.285000
37.687015	3.111429	2.477378	937.785000
37.708087	3.105414	2.478974	938.285000
37.729819	3.098276	2.480959	938.785000
37.751778	3.089967	2.482696	939.285000
37.771338	3.081240	2.484242	939.785000
37.792700	3.072395	2.485792	940.285000
37.814246	3.062955	2.487484	940.785000
37.836470	3.053675	2.489154	941.285000
37.854921	3.044835	2.490743	941.785000
37.876389	3.037090	2.492444	942.285000
37.899683	3.029805	2.493944	942.785000
37.921158	3.022375	2.495296	943.285000
37.941320	3.015164	2.496704	943.785000
37.962977	3.008517	2.498295	944.285000
37.983152	3.002220	2.500249	944.785000
38.005125	2.994799	2.502073	945.285000
38.026497	2.986848	2.503815	945.785000
38.046664	2.978199	2.505561	946.285000
38.065970	2.969569	2.507399	946.785000
38.088803	2.960431	2.509284	947.285000
38.108224	2.950580	2.510997	947.785000
38.127588	2.940872	2.512670	948.285000
38.147443	2.931926	2.514326	948.785000
38.166551	2.923076	2.516048	949.285000
38.188658	2.913935	2.517815	949.785000
38.209709	2.904534	2.519756	950.285000
38.231503	2.895990	2.521545	950.786000
38.253055	2.888317	2.523298	951.285000
38.276279	2.880753	2.524876	951.785000
38.297665	2.871829	2.526398	952.285000
38.319455	2.862340	2.527919	952.785000
38.341946	2.853042	2.529677	953.285000
38.363504	2.843980	2.531541	953.785000
38.386118	2.835285	2.533466	954.285000
38.407414	2.826337	2.535432	954.785000
38.428676	2.816915	2.537240	955.285000
38.450745	2.807001	2.539018	955.785000
38.473261	2.796675	2.540850	956.286000
38.494870	2.786665	2.542595	956.785000
38.516034	2.776260	2.544311	957.285000
38.539005	2.765860	2.546286	957.785000
38.560211	2.756816	2.548264	958.285000
38.579404	2.748803	2.550031	958.785000
38.598618	2.740651	2.551719	959.285000
38.618282	2.732088	2.553546	959.785000
38.638324	2.723359	2.555349	960.285000
38.658497	2.714808	2.557130	960.785000
38.679816	2.706733	2.558809	961.285000
38.699329	2.698671	2.560468	961.785000
38.719818	2.690443	2.562202	962.285000
38.739822	2.682079	2.563918	962.785000
38.760464	2.674385	2.565687	963.285000
38.780947	2.667223	2.567453	963.785000
38.800091	2.659911	2.569202	964.286000
38.821044	2.652606	2.570898	964.785000
38.840603	2.645498	2.572652	965.285000
38.861812	2.638429	2.574364	965.785000
38.882154	2.631104	2.576206	966.285000
38.902867	2.623645	2.578023	966.785000
38.922932	2.616169	2.579767	967.285000
38.943161	2.608604	2.581349	967.785000
38.965530	2.601853	2.583028	968.285000
38.986020	2.596614	2.584802	968.785000
39.006493	2.591978	2.586768	969.285000
39.026476	2.586956	2.588740	969.785000
39.047336	2.581696	2.590692	970.285000
39.068104	2.576583	2.592638	970.785000
39.088088	2.571554	2.594430	971.285000
39.110097	2.566497	2.596186	971.786000
39.128180	2.560807	2.597977	972.285000
39.148336	2.554020	2.599682	972.786000
39.168658	2.547900	2.601418	973.285000
39.189669	2.542779	2.603203	973.785000
39.209710	2.537822	2.605209	974.285000
39.229638	2.532702	2.607175	974.785000
39.249426	2.527287	2.608905	975.285000
39.271111	2.521550	2.610532	975.785000
39.291886	2.516194	2.612397	976.286000
39.313951	2.511636	2.614370	976.785000
39.333040	2.506788	2.616330	977.285000
39.353491	2.501595	2.618304	977.785000
39.371329	2.496136	2.620221	978.285000
39.391879	2.490590	2.622022	978.785000
39.411173	2.485199	2.623818	979.285000
39.429955	2.480244	2.625637	979.785000
39.450141	2.475016	2.627690	980.285000
39.471174	2.469655	2.629850	980.785000
39.490556	2.464838	2.631851	981.285000
39.510198	2.460605	2.633879	981.785000
39.529251	2.456619	2.636068	982.285000
39.549755	2.452119	2.638306	982.785000
39.569107	2.446715	2.640487	983.285000
39.590066	2.441031	2.642409	983.785000
39.610423	2.435880	2.644377	984.285000
39.630784	2.431046	2.646377	984.785000
39.650926	2.426410	2.648369	985.286000
39.671758	2.421580	2.650231	985.785000
39.690803	2.416636	2.652096	986.285000
39.710855	2.411561	2.654076	986.785000
39.731456	2.406119	2.656204	987.285000
39.751830	2.401023	2.658348	987.785000
39.772023	2.396477	2.660455	988.285000
39.791513	2.392122	2.662558	988.785000
39.810831	2.387437	2.664535	989.285000
39.831016	2.382302	2.666492	989.785000
39.851367	2.377530	2.668464	990.285000
39.870445	2.372933	2.670633	990.785000
39.888670	2.368653	2.672740	991.285000
39.907895	2.364250	2.674957	991.785000
39.928169	2.359321	2.677178	992.285000
39.949492	2.354127	2.679231	992.785000
39.970502	2.349112	2.681262	993.285000
39.990079	2.344473	2.683381	993.785000
40.009362	2.340036	2.685701	994.285000
40.029754	2.335319	2.688085	994.785000
40.050062	2.329729	2.690309	995.285000
40.071497	2.323484	2.692527	995.785000
40.091255	2.317599	2.694874	996.286000
40.110886	2.312610	2.697163	996.785000
40.130451	2.307726	2.699668	997.285000
40.150580	2.302433	2.702089	997.785000
40.171152	2.297105	2.704420	998.286000
40.192454	2.291613	2.706569	998.785000
40.211861	2.285660	2.708768	999.285000
40.231810	2.279075	2.711012	999.786000
40.252603	2.272143	2.713383	1000.285000
40.273335	2.264904	2.715757	1000.785000
40.292716	2.257681	2.718063	1001.285000
40.314744	2.250572	2.720427	1001.785000
40.335334	2.243821	2.722966	1002.285000
40.355866	2.237349	2.725624	1002.785000
40.376850	2.231143	2.728119	1003.286000
40.396670	2.225152	2.730597	1003.786000
40.416451	2.218983	2.733093	1004.285000
40.439093	2.212744	2.735642	1004.785000
40.458040	2.205995	2.738200	1005.285000
40.482668	2.198864	2.740678	1005.785000
40.499680	2.190969	2.743183	1006.285000
40.521662	2.183063	2.745675	1006.785000
40.543523	2.175894	2.748347	1007.285000
40.562141	2.169616	2.750952	1007.785000
40.579974	2.163185	2.753683	1008.285000
40.601296	2.155758	2.756545	1008.785000
40.625501	2.148440	2.759189	1009.285000
40.642024	2.142481	2.761766	1009.785000
40.662358	2.135736	2.764594	1010.285000
40.681920	2.125340	2.767440	1010.786000
40.703871	2.112666	2.770099	1011.285000
40.723993	2.101617	2.772569	1011.785000
40.749825	2.095447	2.775147	1012.285000
40.770426	2.093715	2.777673	1012.785000
40.787278	2.091822	2.780556	1013.285000
40.806767	2.085718	2.783751	1013.786000
40.834362	2.075275	2.786783	1014.285000
40.855651	2.063037	2.789419	1014.785000
40.876043	2.052232	2.792097	1015.285000
40.895882	2.044925	2.794970	1015.785000
40.915873	2.041411	2.797949	1016.285000
40.928586	2.038441	2.800994	1016.785000
40.953624	2.033496	2.804073	1017.285000
40.969613	2.024065	2.807090	1017.785000
40.991394	2.011456	2.809864	1018.285000
41.012083	1.999870	2.812760	1018.786000
41.038089	1.992581	2.815815	1019.285000
41.056389	1.989528	2.818675	1019.785000
41.076507	1.987966	2.821664	1020.285000
41.100032	1.983527	2.824568	1020.786000
41.120865	1.974020	2.827425	1021.285000
41.141055	1.960721	2.830419	1021.785000
41.165069	1.946562	2.833399	1022.285000
41.183642	1.935237	2.836298	1022.785000
41.205842	1.927947	2.839042	1023.285000
41.224100	1.923750	2.842041	1023.786000
41.245463	1.919363	2.845139	1024.285000
41.265261	1.911350	2.848174	1024.785000
41.285282	1.898020	2.851231	1025.285000
41.307004	1.882971	2.854238	1025.785000
41.322409	1.868600	2.856979	1026.285000
41.346300	1.857994	2.859728	1026.785000
41.366281	1.851669	2.862759	1027.285000
41.384549	1.847015	2.865755	1027.785000
41.398857	1.840612	2.868841	1028.285000
41.426992	1.829691	2.872183	1028.785000
41.449474	1.814359	2.875185	1029.286000
41.459391	1.797583	2.877935	1029.786000
41.488326	1.782775	2.880793	1030.285000
41.509687	1.772649	2.883543	1030.785000
41.528348	1.765998	2.886338	1031.285000
41.550227	1.759756	2.889259	1031.786000
41.573821	1.750657	2.892249	1032.285000
41.596340	1.736791	2.895252	1032.785000
41.614750	1.718782	2.898209	1033.285000
41.634627	1.700205	2.901239	1033.786000
41.652220	1.683641	2.904011	1034.286000
41.667886	1.671264	2.906718	1034.785000
41.681734	1.662778	2.909666	1035.285000
41.707992	1.654874	2.912598	1035.785000
41.728439	1.644972	2.915312	1036.285000
41.747628	1.629984	2.918003	1036.785000
41.762372	1.610135	2.920787	1037.286000
41.778528	1.588375	2.923358	1037.785000
41.798125	1.568522	2.925827	1038.285000
41.814623	1.552420	2.928066	1038.785000
41.836940	1.541161	2.930269	1039.286000
41.856942	1.532612	2.932501	1039.785000
41.874955	1.523474	2.934881	1040.285000
41.900607	1.510997	2.937384	1040.785000
41.923269	1.493671	2.939804	1041.285000
41.942582	1.472626	2.942106	1041.785000
41.958627	1.450647	2.944541	1042.285000
41.979365	1.430597	2.946907	1042.785000
42.001034	1.414709	2.949218	1043.285000
42.021888	1.402589	2.951327	1043.785000
42.042867	1.392018	2.953251	1044.285000
42.061877	1.379993	2.955281	1044.785000
42.079674	1.364669	2.957429	1045.285000
42.101892	1.345498	2.959697	1045.785000
42.128770	1.323001	2.961924	1046.285000
42.147472	1.298333	2.964036	1046.785000
42.167939	1.274937	2.965988	1047.285000
42.190185	1.253977	2.968058	1047.785000
42.207554	1.236145	2.970199	1048.285000
42.226892	1.220561	2.972164	1048.785000
42.246179	1.207073	2.974037	1049.285000
42.268113	1.193309	2.976015	1049.785000
42.288025	1.177016	2.977966	1050.285000
42.303595	1.157921	2.979682	1050.785000
42.330315	1.137918	2.981261	1051.285000
42.337186	1.117564	2.982964	1051.785000
42.369811	1.096550	2.984643	1052.285000
42.391693	1.075807	2.986153	1052.785000
42.398264	1.056310	2.987722	1053.285000
42.417431	1.038440	2.989259	1053.785000
42.441294	1.022633	2.990686	1054.285000
42.458862	1.007803	2.992143	1054.785000
42.479485	0.992280	2.993582	1055.285000
42.499366	0.973867	2.995209	1055.785000
42.522941	0.953369	2.996667	1056.285000
42.550892	0.931250	2.997940	1056.785000
42.557863	0.909419	2.999053	1057.285000
42.581351	0.889863	2.999984	1057.785000
42.599060	0.873615	3.000897	1058.285000
42.623226	0.860764	3.001941	1058.785000
42.643512	0.850107	3.002937	1059.285000
42.661409	0.839064	3.003843	1059.785000
42.685851	0.826069	3.004670	1060.285000
42.705732	0.809293	3.005618	1060.785000
42.725857	0.789291	3.006442	1061.285000
42.743115	0.767730	3.007243	1061.786000
42.764579	0.746247	3.008264	1062.285000
42.787446	0.725824	3.009056	1062.785000
42.813071	0.706526	3.009825	1063.285000
42.833857	0.689985	3.010632	1063.785000
42.851885	0.677086	3.011184	1064.285000
42.876366	0.666606	3.011693	1064.786000
42.894345	0.658138	3.012129	1065.285000
42.919738	0.649838	3.012532	1065.785000
42.938710	0.639184	3.013091	1066.286000
42.959083	0.626186	3.013626	1066.785000
42.988021	0.610091	3.014326	1067.285000
43.016210	0.591473	3.014958	1067.785000
43.036056	0.572434	3.015523	1068.285000
43.045068	0.554299	3.015966	1068.785000
43.066220	0.536930	3.016285	1069.285000
43.090540	0.521523	3.016622	1069.785000
43.110028	0.509132	3.016862	1070.285000
43.132109	0.500162	3.017049	1070.785000
43.152845	0.494231	3.017433	1071.285000
43.171727	0.490425	3.017809	1071.785000
43.190120	0.486172	3.018210	1072.285000
43.207207	0.480526	3.018389	1072.786000
43.229013	0.473943	3.018327	1073.285000
43.250977	0.465993	3.018344	1073.785000
43.274149	0.455559	3.018464	1074.285000
43.296643	0.443257	3.018696	1074.786000
43.320111	0.430375	3.018824	1075.285000
43.339896	0.416915	3.018890	1075.785000
43.364294	0.405149	3.019017	1076.285000
43.384982	0.394786	3.019182	1076.785000
43.406551	0.386823	3.019158	1077.285000
43.425854	0.381081	3.019052	1077.785000
43.446513	0.377296	3.019017	1078.285000
43.467622	0.374463	3.019015	1078.785000
43.487503	0.373299	3.019036	1079.285000
43.505176	0.373854	3.018938	1079.785000
43.527618	0.373873	3.019123	1080.286000
43.551279	0.372056	3.019376	1080.786000
43.573509	0.368805	3.019495	1081.285000
43.593302	0.364858	3.019635	1081.786000
43.613859	0.359897	3.019793	1082.285000
43.634173	0.354795	3.019859	1082.785000
43.655136	0.349394	3.019830	1083.285000
43.675989	0.342906	3.019856	1083.785000
43.694717	0.335294	3.020086	1084.285000
43.713632	0.327528	3.020400	1084.786000
43.736882	0.322114	3.020603	1085.285000
43.757593	0.319119	3.020704	1085.785000
43.777822	0.317307	3.020653	1086.286000
43.795724	0.316808	3.020472	1086.785000
43.815630	0.318021	3.020322	1087.285000
43.834133	0.321732	3.020162	1087.785000
43.855191	0.327164	3.020096	1088.285000
43.874969	0.333217	3.020008	1088.785000
43.894962	0.337848	3.020003	1089.285000
43.914859	0.339982	3.019857	1089.785000
43.935910	0.339708	3.019850	1090.285000
43.957047	0.337923	3.019923	1090.785000
43.976817	0.334574	3.020130	1091.285000
43.998339	0.329879	3.020262	1091.785000
44.018830	0.324486	3.020311	1092.285000
44.040258	0.318461	3.020227	1092.785000
44.061377	0.312507	3.020111	1093.285000
44.082032	0.307344	3.020037	1093.786000
44.102230	0.303493	3.019871	1094.285000
44.122104	0.300480	3.019980	1094.786000
44.143151	0.299378	3.020130	1095.285000
44.164484	0.299989	3.020159	1095.785000
44.184825	0.302537	3.020071	1096.285000
44.205109	0.306640	3.019958	1096.785000
44.226266	0.312017	3.019823	1097.285000
44.247947	0.318480	3.019710	1097.785000
44.268820	0.324883	3.019575	1098.285000
44.288855	0.331491	3.019500	1098.785000
44.309943	0.337104	3.019446	1099.285000
44.332205	0.342595	3.019496	1099.785000
44.354755	0.347230	3.019516	1100.285000
44.375683	0.350522	3.019506	1100.786000
44.396477	0.353196	3.019631	1101.285000
44.419073	0.355044	3.019727	1101.785000
44.441243	0.355534	3.019899	1102.285000
44.463306	0.354390	3.020046	1102.785000
44.485761	0.352299	3.019955	1103.285000
44.507239	0.350155	3.019849	1103.785000
44.528149	0.347509	3.019789	1104.285000
44.550507	0.344919	3.019778	1104.785000
44.571747	0.343056	3.019890	1105.285000
44.592950	0.341740	3.020073	1105.785000
44.614809	0.341178	3.020239	1106.285000
44.636598	0.341333	3.020251	1106.785000
44.658244	0.340712	3.020261	1107.285000
44.678724	0.339415	3.020297	1107.785000
44.699587	0.337927	3.020375	1108.286000
44.721679	0.337095	3.020370	1108.785000
44.744626	0.338074	3.020316	1109.285000
44.767139	0.339325	3.020353	1109.785000
44.789505	0.341167	3.020407	1110.285000
44.811856	0.343797	3.020355	1110.785000
44.833094	0.347272	3.020248	1111.285000
44.855096	0.352189	3.020079	1111.785000
44.876102	0.358469	3.019855	1112.285000
44.896796	0.366052	3.019719	1112.785000
44.918316	0.374026	3.019617	1113.285000
44.939987	0.381346	3.019513	1113.785000
44.961526	0.387733	3.019488	1114.285000
44.983847	0.393982	3.019571	1114.785000
45.004880	0.401006	3.019620	1115.285000
45.026974	0.408979	3.019589	1115.785000
45.048003	0.416908	3.019445	1116.285000
45.068350	0.424078	3.019422	1116.785000
45.089508	0.431249	3.019541	1117.285000
45.112278	0.438322	3.019599	1117.785000
45.134825	0.444769	3.019609	1118.286000
45.155821	0.450700	3.019724	1118.785000
45.177924	0.455485	3.019929	1119.285000
45.201559	0.460855	3.019960	1119.785000
45.226107	0.466810	3.019890	1120.286000
45.248413	0.473052	3.019829	1120.785000
45.271129	0.479133	3.019690	1121.285000
45.293672	0.484375	3.019427	1121.786000
45.316672	0.489351	3.019190	1122.285000
45.341911	0.493754	3.019144	1122.785000
45.365263	0.497979	3.019158	1123.285000
45.388940	0.502310	3.019266	1123.785000
45.406439	0.507458	3.019380	1124.285000
45.431442	0.513486	3.019371	1124.785000
45.455173	0.519492	3.019431	1125.285000
45.478052	0.524777	3.019554	1125.785000
45.500869	0.530666	3.019615	1126.285000
45.523425	0.536769	3.019426	1126.785000
45.546546	0.542805	3.019323	1127.285000
45.568750	0.549734	3.019136	1127.785000
45.589447	0.556455	3.018917	1128.285000
45.622461	0.562718	3.018913	1128.785000
45.645495	0.569116	3.018961	1129.286000
45.670479	0.576559	3.019062	1129.785000
45.697336	0.584965	3.019112	1130.285000
45.718543	0.593551	3.019146	1130.785000
45.740578	0.601594	3.019160	1131.285000
45.763386	0.609654	3.019414	1131.785000
45.784915	0.618325	3.019712	1132.285000
45.805927	0.626633	3.019743	1132.785000
45.826599	0.635489	3.019643	1133.285000
45.851635	0.645043	3.019525	1133.786000
45.874528	0.655094	3.019370	1134.285000
45.896152	0.664843	3.019236	1134.785000
45.920310	0.674408	3.019193	1135.285000
45.941479	0.684444	3.019347	1135.785000
45.963416	0.694755	3.019507	1136.285000
45.985709	0.705424	3.019515	1136.786000
46.008673	0.716698	3.019415	1137.285000
46.029370	0.728492	3.019303	1137.785000
46.050134	0.739486	3.019183	1138.285000
46.071838	0.749861	3.018924	1138.785000
46.093985	0.761367	3.018759	1139.285000
46.115134	0.773326	3.018612	1139.785000
46.135165	0.785834	3.018520	1140.285000
46.157641	0.798284	3.018622	1140.785000
46.178483	0.811455	3.018624	1141.285000
46.200772	0.824878	3.018574	1141.785000
46.222811	0.837896	3.018595	1142.285000
46.245220	0.851152	3.018679	1142.786000
46.264343	0.864263	3.018721	1143.285000
46.283130	0.877219	3.018832	1143.785000
46.309662	0.890011	3.018748	1144.285000
46.330521	0.903499	3.018495	1144.785000
46.350544	0.917193	3.018234	1145.285000
46.371603	0.931225	3.018031	1145.786000
46.392191	0.944776	3.017837	1146.285000
46.414249	0.957187	3.017666	1146.785000
46.435327	0.971523	3.017505	1147.285000
46.457819	0.987111	3.017427	1147.785000
46.479721	1.001708	3.017278	1148.285000
46.500623	1.015125	3.017174	1148.785000
46.523868	1.028484	3.017089	1149.285000
46.544295	1.042325	3.016955	1149.785000
46.564080	1.056921	3.016737	1150.286000
46.584951	1.071614	3.016570	1150.785000
46.608167	1.086414	3.016433	1151.286000
46.630914	1.102390	3.016604	1151.785000
46.650758	1.118573	3.016849	1152.285000
46.672409	1.134413	3.016882	1152.785000
46.696198	1.150443	3.016815	1153.285000
46.717389	1.166275	3.016832	1153.785000
46.738486	1.182297	3.016713	1154.285000
46.758383	1.198927	3.016470	1154.785000
46.780481	1.216115	3.016253	1155.285000
46.803255	1.233085	3.016117	1155.785000
46.821095	1.250704	3.016169	1156.285000
46.842894	1.269332	3.016288	1156.785000
46.862067	1.289568	3.016244	1157.285000
46.884720	1.309745	3.015938	1157.785000
46.907727	1.330282	3.015518	1158.285000
46.929242	1.351736	3.015044	1158.785000
46.948781	1.373843	3.014711	1159.286000
46.964428	1.396632	3.014465	1159.785000
46.993909	1.418602	3.014392	1160.285000
47.010976	1.440563	3.014272	1160.785000
47.028862	1.463263	3.014045	1161.285000
47.027658	1.487162	3.013881	1161.785000
47.026783	1.511773	3.013747	1162.285000
47.026227	1.535695	3.013505	1162.785000
47.025717	1.558449	3.013358	1163.285000
47.025552	1.580462	3.013303	1163.785000
47.025437	1.600804	3.013108	1164.285000
47.025213	1.618271	3.012997	1164.785000
47.025404	1.632648	3.012788	1165.285000
47.025248	1.644257	3.012494	1165.786000
47.025454	1.654410	3.012349	1166.285000
47.025362	1.663349	3.012327	1166.785000
47.025512	1.670433	3.012438	1167.285000
47.025460	1.676564	3.012467	1167.786000
47.025858	1.681329	3.012351	1168.286000
47.025805	1.683680	3.012357	1168.785000
47.026059	1.684395	3.012324	1169.285000
47.026482	1.683362	3.012337	1169.785000
47.018887	1.680706	3.012364	1170.285000
47.003707	1.676572	3.012414	1170.786000
46.985105	1.670995	3.012430	1171.285000
46.963330	1.663353	3.012493	1171.785000
46.945904	1.653367	3.012757	1172.285000
46.930347	1.640747	3.013103	1172.785000
46.912601	1.625980	3.013326	1173.285000
46.893213	1.609804	3.013618	1173.785000
46.872244	1.592900	3.013816	1174.285000
46.852298	1.575506	3.013907	1174.785000
46.834325	1.558287	3.014046	1175.285000
46.816419	1.541077	3.014234	1175.785000
46.798281	1.524495	3.014479	1176.285000
46.778603	1.508923	3.014640	1176.785000
46.758981	1.494256	3.014791	1177.285000
46.740114	1.480458	3.014990	1177.785000
46.722195	1.466708	3.015120	1178.285000
46.701971	1.452621	3.015272	1178.785000
46.682639	1.437954	3.015438	1179.285000
46.664239	1.422745	3.015631	1179.785000
46.645097	1.406830	3.015835	1180.285000
46.628015	1.389438	3.015874	1180.785000
46.608482	1.370686	3.015991	1181.285000
46.589226	1.350736	3.016069	1181.785000
46.570047	1.329476	3.016009	1182.285000
46.554746	1.306699	3.015890	1182.785000
46.536645	1.283348	3.015719	1183.285000
46.518405	1.259610	3.015750	1183.785000
46.498910	1.235514	3.016093	1184.285000
46.479382	1.211731	3.016306	1184.786000
46.459869	1.189203	3.016519	1185.285000
46.443013	1.168675	3.016748	1185.785000
46.422365	1.151139	3.017073	1186.285000
46.404078	1.136123	3.017451	1186.785000
46.384224	1.123473	3.017807	1187.285000
46.368472	1.112914	3.017954	1187.785000
46.352332	1.103587	3.017896	1188.285000
46.334464	1.094975	3.017961	1188.785000
46.316968	1.086857	3.018096	1189.285000
46.293031	1.078942	3.018101	1189.785000
46.278191	1.070599	3.018165	1190.285000
46.261969	1.061140	3.018174	1190.785000
46.242525	1.049749	3.018114	1191.286000
46.224286	1.036408	3.018075	1191.785000
46.206236	1.020665	3.018138	1192.285000
46.186520	1.003043	3.018185	1192.785000
46.169011	0.984406	3.018230	1193.285000
46.149869	0.965535	3.018191	1193.785000
46.131092	0.946696	3.018323	1194.285000
46.115003	0.928077	3.018381	1194.785000
46.096487	0.911035	3.018638	1195.285000
46.078101	0.896385	3.018819	1195.785000
46.059707	0.884161	3.019009	1196.285000
46.041148	0.874069	3.019103	1196.785000
46.024300	0.866410	3.019182	1197.285000
46.007746	0.860662	3.019100	1197.785000
45.988120	0.856476	3.018974	1198.286000
45.970091	0.853285	3.019004	1198.785000
45.951165	0.849090	3.019111	1199.285000
45.932838	0.844201	3.019152	1199.785000
45.915077	0.837769	3.019245	1200.285000
45.895129	0.828851	3.019234	1200.785000
45.877623	0.817614	3.019088	1201.286000
45.859975	0.803912	3.019064	1201.785000
45.840430	0.788097	3.019183	1202.285000
45.822358	0.771283	3.019303	1202.785000
45.805807	0.754849	3.019448	1203.285000
45.789786	0.739387	3.019554	1203.785000
45.771846	0.725633	3.019702	1204.285000
45.751609	0.714270	3.019909	1204.786000
45.731472	0.705642	3.019963	1205.285000
45.716418	0.699277	3.019953	1205.786000
45.692416	0.695257	3.019864	1206.285000
45.672556	0.693240	3.019776	1206.785000
45.654236	0.691889	3.019807	1207.285000
45.638822	0.690508	3.019782	1207.785000
45.618110	0.688783	3.019665	1208.285000
45.598649	0.684649	3.019523	1208.785000
45.580972	0.677694	3.019280	1209.285000
45.562915	0.667906	3.019109	1209.785000
45.544339	0.656018	3.019050	1210.285000
45.525692	0.642609	3.019232	1210.785000
45.506708	0.628447	3.019429	1211.286000
45.487186	0.614171	3.019465	1211.785000
45.468191	0.600581	3.019514	1212.285000
45.450979	0.589691	3.019558	1212.785000
45.430663	0.581850	3.019662	1213.285000
45.409592	0.577180	3.019790	1213.785000
45.392438	0.574625	3.020017	1214.285000
45.372464	0.574258	3.019980	1214.786000
45.354646	0.574888	3.019685	1215.285000
45.333518	0.575170	3.019646	1215.786000
45.313916	0.574145	3.019722	1216.285000
45.295012	0.570550	3.019660	1216.785000
45.274524	0.563557	3.019533	1217.285000
45.255129	0.553043	3.019503	1217.785000
45.235172	0.540225	3.019624	1218.285000
45.214649	0.526331	3.019738	1218.785000
45.194856	0.512515	3.019800	1219.285000
45.176127	0.500714	3.019823	1219.785000
45.158150	0.492206	3.019818	1220.285000
45.141880	0.487262	3.019850	1220.785000
45.123255	0.485813	3.020180	1221.286000
45.102934	0.487257	3.020330	1221.785000
45.081340	0.489892	3.020218	1222.285000
45.061895	0.491717	3.019935	1222.785000
45.045211	0.490884	3.019735	1223.285000
45.024605	0.486294	3.019647	1223.785000
45.007254	0.478382	3.019719	1224.285000
44.987203	0.467881	3.019716	1224.785000
44.966937	0.456667	3.019786	1225.285000
44.945506	0.445646	3.019895	1225.785000
44.922918	0.436211	3.020089	1226.285000
44.903564	0.429807	3.020267	1226.786000
44.886550	0.426793	3.020325	1227.285000
44.868032	0.426419	3.020236	1227.785000
44.846925	0.428318	3.020195	1228.285000
44.827597	0.428885	3.020135	1228.785000
44.808606	0.425707	3.020117	1229.285000
44.790130	0.419694	3.020235	1229.785000
44.773406	0.411735	3.020312	1230.285000
44.754988	0.403659	3.020470	1230.785000
44.731262	0.396886	3.020684	1231.286000
44.711245	0.392939	3.020711	1231.785000
44.690678	0.391456	3.020646	1232.286000
44.676336	0.391549	3.020411	1232.785000
44.651723	0.392388	3.020334	1233.285000
44.631567	0.392797	3.020253	1233.785000
44.613136	0.391224	3.020254	1234.286000
44.596898	0.387039	3.020201	1234.785000
44.581050	0.381257	3.020011	1235.285000
44.562969	0.374231	3.020053	1235.786000
44.541275	0.367401	3.020131	1236.285000
44.522754	0.362198	3.020263	1236.786000
44.503858	0.358727	3.020362	1237.285000
44.482650	0.357676	3.020393	1237.785000
44.463218	0.358314	3.020360	1238.285000
44.443359	0.359499	3.020277	1238.785000
44.420116	0.362131	3.020083	1239.285000
44.403573	0.365255	3.019972	1239.785000
44.383968	0.366895	3.019825	1240.286000
44.366461	0.365237	3.019601	1240.785000
44.345699	0.359739	3.019535	1241.285000
44.324697	0.350917	3.019604	1241.785000
44.303382	0.341271	3.019812	1242.285000
44.285382	0.333428	3.019957	1242.785000
44.267390	0.329943	3.020049	1243.285000
44.247192	0.331031	3.020152	1243.785000
44.228940	0.335921	3.020141	1244.285000
44.210736	0.342100	3.019999	1244.785000
44.195181	0.346367	3.019987	1245.285000
44.175638	0.346310	3.019916	1245.785000
44.157529	0.341116	3.019920	1246.285000
44.140521	0.332783	3.019886	1246.785000
44.121250	0.324295	3.019866	1247.285000
44.103715	0.319087	3.019960	1247.785000
44.086125	0.318463	3.020107	1248.285000
44.067813	0.322676	3.020112	1248.785000
44.050502	0.329207	3.020036	1249.285000
44.031612	0.335093	3.019982	1249.785000
44.013482	0.336629	3.020009	1250.285000
43.994911	0.333721	3.020100	1250.785000
43.978541	0.326945	3.020191	1251.285000
43.959788	0.318744	3.020319	1251.785000
43.940543	0.313522	3.020409	1252.285000
43.921730	0.313419	3.020383	1252.785000
43.904009	0.317697	3.020371	1253.285000
43.886666	0.324060	3.020206	1253.785000
43.868311	0.329393	3.019999	1254.285000
43.852577	0.330905	3.020045	1254.785000
43.834134	0.328162	3.020024	1255.285000
43.815951	0.322801	3.019933	1255.785000
43.800721	0.317011	3.020022	1256.285000
43.782887	0.314026	3.020095	1256.785000
43.764271	0.315914	3.020185	1257.285000
43.740951	0.321473	3.020048	1257.785000
43.724080	0.327393	3.019814	1258.285000
43.708019	0.330406	3.019655	1258.785000
43.690676	0.328468	3.019677	1259.285000
43.671700	0.322963	3.019670	1259.785000
43.651679	0.316777	3.019672	1260.285000
43.633914	0.314040	3.019636	1260.785000
43.614084	0.316438	3.019698	1261.285000
43.596100	0.322826	3.019762	1261.785000
43.576616	0.330371	3.019786	1262.285000
43.556528	0.336481	3.019844	1262.785000
43.535078	0.338537	3.019749	1263.285000
43.519356	0.335825	3.019632	1263.785000
43.502802	0.330416	3.019584	1264.285000
43.485035	0.326388	3.019583	1264.785000
43.467490	0.327019	3.019579	1265.286000
43.449828	0.333259	3.019664	1265.786000
43.432731	0.342176	3.019734	1266.285000
43.412784	0.350054	3.019632	1266.785000
43.395675	0.353924	3.019389	1267.285000
43.376292	0.353412	3.019398	1267.785000
43.357148	0.350525	3.019490	1268.285000
43.336853	0.348118	3.019564	1268.786000
43.318432	0.349852	3.019647	1269.285000
43.301727	0.357028	3.019528	1269.785000
43.280060	0.367063	3.019402	1270.285000
43.263501	0.375845	3.019188	1270.785000
43.245479	0.380188	3.019018	1271.285000
43.229458	0.380035	3.018813	1271.785000
43.211798	0.377383	3.018558	1272.286000
43.194571	0.376726	3.018495	1272.785000
43.176526	0.382541	3.018645	1273.285000
43.157864	0.393003	3.018670	1273.785000
43.138905	0.404505	3.018593	1274.285000
43.121708	0.413170	3.018525	1274.785000
43.102985	0.415532	3.018482	1275.285000
43.083974	0.414085	3.018426	1275.785000
43.069834	0.414043	3.018388	1276.285000
43.051166	0.419730	3.018296	1276.786000
43.032270	0.429833	3.018238	1277.285000
43.011356	0.440371	3.018143	1277.786000
42.992729	0.448013	3.017985	1278.285000
42.974326	0.452515	3.017677	1278.785000
42.956488	0.457091	3.017372	1279.285000
42.936572	0.461666	3.016981	1279.785000
42.918634	0.469485	3.016656	1280.286000
42.900110	0.481734	3.016289	1280.786000
42.881128	0.496037	3.015958	1281.285000
42.862489	0.507915	3.015496	1281.785000
42.844372	0.515631	3.015133	1282.285000
42.824936	0.520218	3.014868	1282.785000
42.806742	0.525251	3.014775	1283.285000
42.787407	0.535029	3.014724	1283.785000
42.767999	0.548873	3.014421	1284.285000
42.753600	0.564233	3.014040	1284.785000
42.734415	0.577547	3.013521	1285.285000
42.716039	0.586787	3.012984	1285.785000
42.695220	0.593765	3.012629	1286.285000
42.678157	0.601584	3.012237	1286.785000
42.659073	0.613402	3.011899	1287.285000
42.637189	0.628885	3.011438	1287.786000
42.621241	0.645014	3.010830	1288.285000
42.602756	0.658780	3.010098	1288.785000
42.590256	0.670346	3.009517	1289.285000
42.569449	0.682077	3.009019	1289.785000
42.547394	0.695648	3.008415	1290.285000
42.529935	0.710746	3.007773	1290.785000
42.510980	0.726803	3.006916	1291.285000
42.493822	0.743451	3.006036	1291.785000
42.474713	0.757238	3.005084	1292.285000
42.454558	0.768705	3.004135	1292.785000
42.435424	0.779916	3.003332	1293.285000
42.425210	0.793734	3.002479	1293.785000
42.404987	0.811368	3.001581	1294.285000
42.379904	0.830228	3.000699	1294.785000
42.368155	0.847341	2.999666	1295.285000
42.344014	0.860896	2.998644	1295.785000
42.324863	0.872672	2.997666	1296.285000
42.305015	0.886436	2.996628	1296.786000
42.285184	0.903867	2.995611	1297.285000
42.265948	0.922700	2.994389	1297.786000
42.248642	0.940637	2.993092	1298.285000
42.231557	0.956215	2.991740	1298.785000
42.213188	0.969484	2.990302	1299.285000
42.194196	0.984499	2.988952	1299.785000
42.176114	1.002853	2.987555	1300.285000
42.158054	1.023231	2.986170	1300.785000
42.137042	1.043541	2.984612	1301.285000
42.120554	1.061565	2.983106	1301.785000
42.101292	1.076626	2.981659	1302.285000
42.082967	1.088799	2.980084	1302.785000
42.064701	1.102516	2.978521	1303.285000
42.045760	1.121615	2.976930	1303.785000
42.027176	1.143625	2.975245	1304.285000
42.007062	1.162549	2.973432	1304.785000
41.987253	1.176237	2.971615	1305.285000
41.968616	1.188154	2.969875	1305.785000
41.948660	1.202649	2.968177	1306.285000
41.928927	1.221844	2.966436	1306.785000
41.909295	1.242333	2.964686	1307.285000
41.890998	1.260396	2.962730	1307.785000
41.870789	1.273868	2.960736	1308.285000
41.852148	1.285954	2.958878	1308.785000
41.834724	1.301216	2.956919	1309.285000
41.817282	1.321483	2.954993	1309.785000
41.801309	1.343582	2.953195	1310.285000
41.785953	1.360856	2.951307	1310.785000
41.764021	1.372320	2.949305	1311.285000
41.748915	1.383049	2.947254	1311.785000
41.728325	1.398682	2.945160	1312.285000
41.713873	1.418968	2.942958	1312.785000
41.695638	1.438580	2.940800	1313.286000
41.676127	1.453182	2.938768	1313.785000
41.657240	1.464431	2.936711	1314.286000
41.640361	1.478665	2.934461	1314.785000
41.621881	1.495294	2.932076	1315.285000
41.602695	1.511800	2.929856	1315.785000
41.582980	1.525439	2.927767	1316.285000
41.563542	1.535707	2.925598	1316.785000
41.547138	1.545117	2.923299	1317.285000
41.528314	1.558669	2.920997	1317.785000
41.504869	1.576218	2.918776	1318.285000
41.490980	1.592077	2.916445	1318.785000
41.470105	1.603720	2.914029	1319.285000
41.450278	1.612568	2.911568	1319.785000
41.434009	1.624308	2.908958	1320.285000
41.415784	1.640403	2.906550	1320.785000
41.396793	1.657036	2.904177	1321.285000
41.375732	1.668166	2.901601	1321.785000
41.359678	1.674378	2.898811	1322.285000
41.337828	1.681962	2.896139	1322.785000
41.320286	1.695255	2.893580	1323.286000
41.301891	1.710994	2.891066	1323.785000
41.282083	1.723070	2.888556	1324.285000
41.266064	1.730554	2.886191	1324.785000
41.248730	1.736807	2.883646	1325.285000
41.230170	1.747414	2.880923	1325.785000
41.213538	1.760621	2.878163	1326.285000
41.192657	1.770756	2.875552	1326.785000
41.172157	1.775166	2.872929	1327.285000
41.155015	1.779954	2.870425	1327.785000
41.137668	1.790278	2.867960	1328.285000
41.118075	1.803269	2.865375	1328.786000
41.099175	1.813216	2.862749	1329.285000
41.084738	1.818392	2.860067	1329.785000
41.063934	1.823727	2.857514	1330.285000
41.046503	1.834926	2.854898	1330.785000
41.026506	1.850002	2.851967	1331.285000
41.006037	1.862192	2.848840	1331.785000
40.987592	1.869742	2.846049	1332.285000
40.971669	1.877980	2.843443	1332.785000
40.953777	1.888678	2.840873	1333.286000
40.935765	1.899896	2.838410	1333.785000
40.917542	1.909097	2.835983	1334.286000
40.899389	1.916069	2.833604	1334.785000
40.880112	1.924747	2.831163	1335.285000
40.859726	1.935129	2.828571	1335.785000
40.840086	1.946615	2.825956	1336.285000
40.825167	1.954407	2.823300	1336.785000
40.805535	1.957702	2.820702	1337.285000
40.788725	1.962382	2.818189	1337.785000
40.769651	1.972157	2.815586	1338.285000
40.751867	1.981542	2.812889	1338.786000
40.732120	1.985424	2.810179	1339.285000
40.713766	1.985164	2.807707	1339.786000
40.695637	1.987522	2.805280	1340.285000
40.679120	1.995193	2.802874	1340.785000
40.659779	2.003272	2.800332	1341.285000
40.640384	2.008391	2.797791	1341.785000
40.622411	2.012811	2.795251	1342.286000
40.604057	2.020506	2.792806	1342.785000
40.585916	2.031050	2.790290	1343.285000
40.566064	2.039492	2.787740	1343.785000
40.546964	2.043548	2.785283	1344.286000
40.528802	2.046526	2.782897	1344.785000
40.506955	2.053352	2.780496	1345.285000
40.487778	2.062324	2.777921	1345.785000
40.468446	2.069297	2.775413	1346.285000
40.449993	2.072312	2.772878	1346.785000
40.430822	2.076639	2.770397	1347.285000
40.411487	2.085547	2.767858	1347.785000
40.391483	2.096219	2.765254	1348.285000
40.371929	2.103075	2.762720	1348.786000
40.355054	2.106746	2.760401	1349.285000
40.333777	2.112839	2.758161	1349.785000
40.316556	2.123371	2.755724	1350.285000
40.297824	2.133472	2.752963	1350.785000
40.277536	2.139142	2.750460	1351.285000
40.257402	2.142618	2.748255	1351.785000
40.242152	2.149607	2.746080	1352.285000
40.223051	2.158479	2.743781	1352.785000
40.199884	2.164123	2.741272	1353.285000
40.182681	2.166100	2.738985	1353.785000
40.164767	2.170281	2.736595	1354.285000
40.143509	2.180450	2.734037	1354.785000
40.124064	2.191220	2.731592	1355.286000
40.103541	2.197417	2.729300	1355.785000
40.088031	2.202231	2.727166	1356.285000
40.067659	2.208782	2.724801	1356.785000
40.049577	2.216924	2.722431	1357.285000
40.031813	2.222969	2.720160	1357.785000
40.010399	2.227413	2.717831	1358.285000
39.991172	2.233461	2.715580	1358.786000
39.973444	2.241271	2.713234	1359.285000
39.953873	2.247836	2.710960	1359.785000
39.935709	2.251443	2.708792	1360.285000
39.916751	2.254012	2.706592	1360.785000
39.897515	2.259562	2.704346	1361.285000
39.877783	2.268541	2.702095	1361.785000
39.859265	2.275963	2.699918	1362.285000
39.839736	2.278887	2.698007	1362.785000
39.814795	2.281880	2.696101	1363.285000
39.799939	2.289891	2.693869	1363.785000
39.780301	2.298993	2.691688	1364.285000
39.762021	2.302947	2.689540	1364.785000
39.742352	2.304257	2.687407	1365.285000
39.725874	2.309157	2.685332	1365.785000
39.705700	2.318166	2.683173	1366.286000
39.690639	2.324309	2.681016	1366.785000
39.673123	2.326101	2.678945	1367.285000
39.652463	2.329171	2.676925	1367.785000
39.627448	2.336346	2.674912	1368.285000
39.612447	2.343459	2.672944	1368.786000
39.596322	2.346499	2.670952	1369.285000
39.574933	2.348919	2.668971	1369.785000
39.559839	2.355873	2.667061	1370.285000
39.539925	2.364726	2.665096	1370.785000
39.518825	2.368795	2.663225	1371.285000
39.496593	2.369385	2.661418	1371.785000
39.479781	2.373864	2.659639	1372.285000
39.469301	2.382936	2.657750	1372.785000
39.453204	2.389316	2.655841	1373.285000
39.429947	2.390364	2.653925	1373.785000
39.414517	2.393206	2.651933	1374.285000
39.395892	2.401285	2.649960	1374.785000
39.379047	2.408011	2.647845	1375.285000
39.360891	2.410815	2.645881	1375.785000
39.339619	2.414069	2.644031	1376.285000
39.318072	2.421302	2.642284	1376.785000
39.300952	2.429094	2.640448	1377.285000
39.283886	2.432636	2.638682	1377.786000
39.264564	2.433663	2.636988	1378.285000
39.248517	2.438367	2.635368	1378.785000
39.228177	2.444604	2.633716	1379.285000
39.206491	2.447956	2.632040	1379.785000
39.189571	2.447896	2.630334	1380.285000
39.174214	2.450539	2.628496	1380.785000
39.151581	2.457175	2.626538	1381.285000
39.135227	2.462775	2.624678	1381.785000
39.116372	2.466001	2.622998	1382.285000
39.095170	2.469614	2.621443	1382.785000
39.076108	2.476070	2.619748	1383.286000
39.057299	2.483302	2.618029	1383.785000
39.037885	2.487748	2.616220	1384.286000
39.019818	2.491459	2.614467	1384.785000
38.998377	2.497510	2.612771	1385.286000
38.980654	2.504864	2.611138	1385.785000
38.962786	2.508136	2.609501	1386.285000
38.942192	2.509603	2.607841	1386.785000
38.926229	2.515822	2.606118	1387.285000
38.904151	2.525480	2.604376	1387.785000
38.887715	2.530778	2.602535	1388.285000
38.869281	2.531982	2.600811	1388.785000
38.848694	2.535962	2.599238	1389.285000
38.830408	2.543634	2.597520	1389.785000
38.814691	2.548393	2.595691	1390.285000
38.797649	2.549378	2.594021	1390.785000
38.779945	2.552963	2.592471	1391.285000
38.762452	2.561304	2.590965	1391.785000
38.743613	2.567257	2.589433	1392.285000
38.722716	2.570420	2.587713	1392.785000
38.705304	2.574985	2.585931	1393.286000
38.686713	2.583180	2.584123	1393.786000
38.669083	2.590529	2.582383	1394.286000
38.653589	2.593199	2.580661	1394.785000
38.636816	2.597493	2.579088	1395.285000
38.618449	2.606786	2.577439	1395.785000
38.599624	2.616203	2.575898	1396.285000
38.577592	2.620465	2.574367	1396.785000
38.557894	2.623495	2.572943	1397.285000
38.540524	2.632296	2.571657	1397.785000
38.521995	2.643019	2.570191	1398.285000
38.501413	2.648674	2.568549	1398.785000
38.479642	2.651407	2.566871	1399.285000
38.458951	2.659016	2.565177	1399.785000
38.440030	2.670239	2.563562	1400.285000
38.421942	2.677570	2.561885	1400.785000
38.401872	2.680111	2.560231	1401.285000
38.376415	2.685553	2.558627	1401.785000
38.359743	2.696516	2.556960	1402.285000
38.345584	2.705666	2.555212	1402.785000
38.328204	2.709381	2.553474	1403.285000
38.308329	2.714151	2.551968	1403.786000
38.286345	2.724285	2.550465	1404.285000
38.268826	2.735572	2.548848	1404.785000
38.245156	2.742479	2.547148	1405.285000
38.230076	2.748379	2.545611	1405.785000
38.212011	2.757747	2.543870	1406.285000
38.194079	2.769311	2.542209	1406.785000
38.175779	2.776984	2.540720	1407.285000
38.156969	2.781531	2.539281	1407.785000
38.140303	2.789254	2.537680	1408.285000
38.119858	2.801193	2.536064	1408.785000
38.104401	2.810474	2.534589	1409.285000
38.085580	2.816028	2.533085	1409.785000
38.064798	2.823376	2.531454	1410.285000
38.042152	2.835370	2.529774	1410.785000
38.022425	2.845059	2.528272	1411.285000
38.002863	2.848715	2.526848	1411.785000
37.987221	2.853449	2.525404	1412.285000
37.968250	2.863904	2.523925	1412.785000
37.945425	2.874247	2.522463	1413.285000
37.926228	2.880910	2.520953	1413.786000
37.909223	2.888033	2.519373	1414.285000
37.890558	2.899020	2.517650	1414.785000
37.866312	2.911161	2.515924	1415.285000
37.848117	2.918356	2.514234	1415.785000
37.829718	2.923922	2.512669	1416.285000
37.813534	2.933971	2.511083	1416.785000
37.790768	2.944959	2.509452	1417.285000
37.767182	2.951098	2.507825	1417.785000
37.748633	2.954674	2.506281	1418.285000
37.735524	2.963098	2.504636	1418.785000
37.717467	2.974126	2.502937	1419.285000
37.697353	2.981215	2.501502	1419.786000
37.680081	2.985720	2.500149	1420.285000
37.655959	2.994335	2.498688	1420.786000
37.639992	3.005188	2.497317	1421.285000
37.623686	3.010900	2.495879	1421.785000
37.606056	3.013545	2.494481	1422.285000
37.588085	3.020472	2.493110	1422.786000
37.569152	3.030496	2.491534	1423.285000
37.551019	3.037176	2.489614	1423.786000
37.531492	3.040603	2.487901	1424.285000
37.510997	3.047917	2.486339	1424.785000
37.490546	3.057865	2.485010	1425.285000
37.473588	3.064007	2.483713	1425.785000
37.454202	3.068533	2.482317	1426.286000
37.435309	3.077475	2.480899	1426.785000
37.414517	3.089511	2.479285	1427.285000
37.397586	3.097541	2.477589	1427.785000
37.378545	3.102198	2.476194	1428.285000
37.357329	3.110696	2.474823	1428.785000
37.339559	3.122316	2.473369	1429.285000
37.321760	3.130082	2.471807	1429.785000
37.302885	3.134350	2.470226	1430.285000
37.283487	3.142447	2.468760	1430.785000
37.264192	3.153236	2.467256	1431.285000
37.244776	3.159014	2.465663	1431.785000
37.230332	3.161239	2.464246	1432.285000
37.212248	3.167458	2.462870	1432.785000
37.192222	3.175852	2.461406	1433.285000
37.175878	3.181401	2.459851	1433.786000
37.155641	3.186533	2.458410	1434.285000
37.135048	3.196658	2.457053	1434.785000
37.116872	3.209139	2.455723	1435.285000
37.096383	3.216631	2.454324	1435.785000
37.076714	3.220548	2.452785	1436.285000
37.059367	3.229118	2.451113	1436.785000
37.041598	3.239317	2.449356	1437.286000
37.020709	3.244666	2.447744	1437.785000
37.000494	3.249274	2.446451	1438.286000
36.982113	3.259194	2.445119	1438.785000
36.963628	3.269727	2.443518	1439.285000
36.944717	3.275971	2.441878	1439.785000
36.924907	3.282638	2.440449	1440.285000
36.904387	3.293178	2.438999	1440.786000
36.886799	3.301550	2.437522	1441.285000
36.868667	3.305717	2.436090	1441.785000
36.846722	3.312833	2.434732	1442.285000
36.828178	3.324519	2.433486	1442.785000
36.812991	3.332351	2.431920	1443.285000
36.793870	3.336705	2.430135	1443.785000
36.772368	3.345507	2.428451	1444.285000
36.757213	3.356335	2.426918	1444.785000
36.737386	3.362644	2.425520	1445.286000
36.720063	3.367322	2.423969	1445.785000
36.700113	3.377367	2.422406	1446.285000
36.684991	3.387345	2.420987	1446.785000
36.667622	3.391766	2.419604	1447.285000
36.646358	3.396536	2.418232	1447.785000
36.635115	3.406012	2.416935	1448.285000
36.618827	3.412898	2.415768	1448.785000
36.599603	3.414765	2.414433	1449.285000
36.581113	3.419691	2.412895	1449.785000
36.562295	3.428035	2.411459	1450.285000
36.544392	3.433555	2.410154	1450.786000
36.526410	3.436502	2.408992	1451.285000
36.507353	3.443627	2.407801	1451.785000
36.489486	3.452570	2.406522	1452.285000
36.470534	3.456775	2.405113	1452.785000
36.449599	3.460721	2.403737	1453.285000
36.430434	3.468916	2.402211	1453.785000
36.411653	3.475991	2.400652	1454.285000
36.390870	3.477744	2.399345	1454.785000
36.374297	3.480452	2.397983	1455.286000
36.359766	3.488739	2.396670	1455.785000
36.336497	3.495870	2.395295	1456.285000
36.315319	3.498873	2.393999	1456.785000
36.303443	3.505003	2.392590	1457.285000
36.282297	3.514646	2.391142	1457.785000
36.259537	3.519946	2.389665	1458.285000
36.244975	3.522997	2.388239	1458.785000
36.221972	3.530192	2.386784	1459.285000
36.205007	3.537571	2.385412	1459.785000
36.188134	3.540232	2.384064	1460.285000
36.171833	3.542726	2.382677	1460.785000
36.154233	3.550743	2.381177	1461.285000
36.134749	3.557468	2.379635	1461.786000
36.117281	3.559832	2.378285	1462.285000
36.098798	3.565330	2.377169	1462.785000
36.080267	3.574457	2.375882	1463.285000
36.063570	3.580172	2.374301	1463.785000
36.046991	3.583311	2.372749	1464.285000
36.028888	3.589894	2.371148	1464.785000
36.011093	3.597474	2.369566	1465.285000
35.985573	3.600578	2.368211	1465.785000
35.966720	3.603933	2.366910	1466.285000
35.949407	3.612753	2.365444	1466.785000
35.927066	3.619867	2.363944	1467.285000
35.906872	3.622355	2.362423	1467.785000
35.888830	3.628079	2.361106	1468.285000
35.869676	3.637352	2.359641	1468.785000
35.854215	3.642169	2.358165	1469.285000
35.834730	3.645042	2.356863	1469.785000
35.818518	3.652402	2.355532	1470.285000
35.800839	3.659701	2.354137	1470.785000
35.779218	3.661659	2.352721	1471.285000
35.760714	3.665676	2.351279	1471.785000
35.744414	3.674121	2.349844	1472.285000
35.724919	3.679616	2.348450	1472.785000
35.703374	3.683542	2.347029	1473.285000
35.686100	3.688636	2.345567	1473.785000
35.668276	3.694347	2.344010	1474.285000
35.647312	3.699817	2.342487	1474.786000
35.627974	3.705644	2.341150	1475.285000
35.608395	3.711569	2.339861	1475.786000
35.588390	3.716942	2.338427	1476.286000
35.570091	3.722094	2.336972	1476.785000
35.551747	3.727409	2.335452	1477.286000
35.532162	3.732824	2.333959	1477.785000
35.515848	3.737742	2.332538	1478.285000
35.496327	3.743194	2.331122	1478.785000
35.474895	3.748510	2.329659	1479.285000
35.454067	3.753221	2.328410	1479.785000
35.435359	3.758407	2.327073	1480.285000
35.412050	3.763616	2.325592	1480.786000
35.394483	3.768216	2.324011	1481.285000
35.371548	3.772529	2.322433	1481.785000
35.354189	3.776918	2.320927	1482.285000
35.334163	3.781627	2.319476	1482.785000
35.317097	3.786102	2.318067	1483.285000
35.294607	3.790743	2.316523	1483.785000
35.278110	3.795362	2.314774	1484.285000
35.257159	3.799398	2.312912	1484.785000
35.237743	3.803334	2.311346	1485.285000
35.219417	3.807229	2.309697	1485.786000
35.198137	3.810143	2.308014	1486.286000
35.180661	3.812066	2.306621	1486.785000
35.163797	3.814304	2.305231	1487.286000
35.140434	3.816935	2.303746	1487.785000
35.123245	3.819334	2.302510	1488.285000
35.103179	3.821893	2.301229	1488.785000
35.083599	3.824587	2.299925	1489.285000
35.060277	3.826939	2.298509	1489.785000
35.038727	3.829492	2.297074	1490.285000
35.024556	3.832215	2.295578	1490.786000
35.003055	3.834510	2.294029	1491.285000
34.985796	3.836547	2.292643	1491.785000
34.967665	3.839543	2.291340	1492.285000
34.946798	3.842573	2.289967	1492.785000
34.925871	3.845492	2.288482	1493.285000
34.906036	3.848756	2.286988	1493.785000
34.884946	3.852219	2.285393	1494.285000
34.866464	3.855220	2.283721	1494.785000
34.843865	3.857882	2.282070	1495.285000
34.820621	3.860208	2.280527	1495.785000
34.801731	3.862276	2.278950	1496.285000
34.783569	3.864649	2.277413	1496.785000
34.763418	3.867034	2.275899	1497.285000
34.744547	3.869517	2.274401	1497.785000
34.727839	3.871654	2.272984	1498.285000
34.711008	3.873842	2.271614	1498.785000
34.691193	3.876161	2.270310	1499.285000
34.673260	3.878055	2.268745	1499.785000
34.654260	3.879506	2.266883	1500.286000
34.633455	3.881178	2.264979	1500.785000
34.609309	3.882861	2.263263	1501.286000
34.594839	3.884474	2.261721	1501.785000
34.577021	3.886756	2.260216	1502.285000
34.555974	3.888801	2.258782	1502.785000
34.531559	3.890209	2.257469	1503.285000
34.513408	3.891698	2.256148	1503.785000
34.491963	3.894101	2.254719	1504.285000
34.473623	3.896007	2.253286	1504.785000
34.454346	3.897877	2.251939	1505.285000
34.434714	3.899564	2.250660	1505.785000
34.419217	3.900850	2.249301	1506.285000
34.400420	3.901914	2.247851	1506.785000
34.379538	3.903022	2.246467	1507.285000
34.355836	3.903671	2.245048	1507.785000
34.339736	3.904355	2.243631	1508.285000
34.322133	3.905352	2.242107	1508.785000
34.302325	3.906182	2.240667	1509.285000
34.284804	3.906881	2.239354	1509.785000
34.265445	3.907834	2.237724	1510.285000
34.245956	3.908829	2.235951	1510.785000
34.221897	3.909573	2.234254	1511.286000
34.209680	3.910826	2.232588	1511.785000
34.189298	3.912323	2.231032	1512.285000
34.167462	3.913255	2.229571	1512.785000
34.148941	3.913919	2.228231	1513.285000
34.128491	3.914368	2.226837	1513.785000
34.107160	3.914550	2.225358	1514.285000
34.085391	3.914824	2.223878	1514.785000
34.070930	3.914858	2.222237	1515.285000
34.052655	3.914750	2.220620	1515.785000
34.028699	3.914513	2.219052	1516.285000
34.008122	3.914818	2.217470	1516.786000
33.995308	3.915220	2.215771	1517.285000
33.972703	3.915154	2.214175	1517.785000
33.949634	3.915674	2.212556	1518.286000
33.930778	3.916272	2.211205	1518.785000
33.911541	3.916541	2.209941	1519.285000
33.891927	3.917001	2.208592	1519.785000
33.872864	3.917477	2.207297	1520.285000
33.856827	3.917355	2.205848	1520.785000
33.842319	3.917076	2.204444	1521.285000
33.825334	3.916886	2.202905	1521.786000
33.802820	3.916315	2.201221	1522.285000
33.786477	3.915760	2.199534	1522.785000
33.768974	3.915652	2.197993	1523.285000
33.750929	3.915244	2.196452	1523.786000
33.729041	3.914458	2.195136	1524.285000
33.707904	3.914162	2.193780	1524.785000
33.692487	3.913712	2.192357	1525.285000
33.672706	3.913157	2.190888	1525.786000
33.651596	3.912528	2.189331	1526.285000
33.634634	3.911545	2.187888	1526.785000
33.615475	3.910286	2.186437	1527.285000
33.597746	3.909180	2.184982	1527.785000
33.580627	3.908048	2.183579	1528.286000
33.562887	3.906353	2.182092	1528.785000
33.544925	3.904941	2.180712	1529.286000
33.524755	3.903625	2.179378	1529.785000
33.505276	3.901909	2.177890	1530.285000
33.487980	3.900243	2.176459	1530.785000
33.469055	3.898313	2.175119	1531.285000
33.449982	3.895720	2.173569	1531.785000
33.431448	3.893588	2.172238	1532.285000
33.414102	3.891605	2.170656	1532.785000
33.395248	3.889293	2.169108	1533.285000
33.374805	3.887119	2.167534	1533.785000
33.354825	3.884591	2.165959	1534.285000
33.331918	3.881761	2.164567	1534.785000
33.312955	3.879244	2.163167	1535.285000
33.298713	3.876426	2.161879	1535.786000
33.281073	3.873245	2.160459	1536.285000
33.263055	3.870429	2.158929	1536.785000
33.243798	3.867663	2.157334	1537.285000
33.224341	3.864594	2.155668	1537.785000
33.199924	3.861963	2.154203	1538.285000
33.186553	3.859172	2.152941	1538.785000
33.169342	3.856332	2.151404	1539.285000
33.151303	3.857591	2.149103	1539.785000
33.132617	3.856865	2.147008	1540.285000
33.113950	3.853015	2.145391	1540.785000
33.093243	3.848363	2.144024	1541.286000
33.074814	3.843268	2.142867	1541.785000
33.056738	3.837954	2.141756	1542.285000
33.036934	3.833175	2.140619	1542.785000
33.016904	3.828658	2.139379	1543.285000
32.997825	3.823899	2.138072	1543.785000
32.979311	3.819294	2.136697	1544.285000
32.960693	3.814369	2.135168	1544.786000
32.942411	3.809477	2.133464	1545.285000
32.923236	3.805061	2.131811	1545.785000
32.903891	3.800649	2.130290	1546.285000
32.883820	3.795964	2.128907	1546.785000
32.863984	3.791580	2.127243	1547.285000
32.845367	3.786696	2.125612	1547.785000
32.827091	3.781569	2.124101	1548.285000
32.808816	3.776473	2.122895	1548.785000
32.791586	3.770971	2.121495	1549.285000
32.769336	3.764685	2.120120	1549.785000
32.750974	3.758901	2.118548	1550.285000
32.732095	3.752787	2.117000	1550.785000
32.712079	3.746510	2.115453	1551.285000
32.695757	3.740706	2.113846	1551.785000
32.674631	3.734637	2.112406	1552.285000
32.661226	3.727900	2.110918	1552.785000
32.639100	3.721632	2.109258	1553.285000
32.619758	3.714794	2.107738	1553.785000
32.595905	3.707274	2.106229	1554.285000
32.586749	3.700061	2.104825	1554.785000
32.565915	3.692453	2.103661	1555.285000
32.549442	3.684722	2.102424	1555.785000
32.530978	3.677226	2.101134	1556.285000
32.512869	3.669633	2.099916	1556.785000
32.496920	3.661909	2.098444	1557.285000
32.478685	3.654066	2.096963	1557.785000
32.458911	3.645770	2.095383	1558.285000
32.434226	3.637200	2.093877	1558.785000
32.419572	3.628276	2.092386	1559.286000
32.402846	3.619010	2.090801	1559.785000
32.386227	3.610027	2.089261	1560.285000
32.367764	3.600766	2.087866	1560.785000
32.348981	3.591158	2.086497	1561.285000
32.329641	3.581387	2.085214	1561.785000
32.309079	3.571104	2.083908	1562.285000
32.288747	3.560449	2.082449	1562.785000
32.275226	3.549799	2.081118	1563.285000
32.257401	3.538775	2.079674	1563.785000
32.232404	3.527781	2.078156	1564.285000
32.209641	3.516541	2.076655	1564.786000
32.199812	3.504378	2.075272	1565.285000
32.181827	3.492182	2.073888	1565.785000
32.161730	3.480204	2.072315	1566.285000
32.144750	3.467925	2.070816	1566.785000
32.127959	3.455833	2.069423	1567.285000
32.109824	3.442919	2.068002	1567.785000
32.087416	3.429599	2.066470	1568.285000
32.070040	3.416622	2.065092	1568.785000
32.052908	3.402950	2.063714	1569.285000
32.034888	3.389102	2.062411	1569.785000
32.012177	3.375463	2.061216	1570.285000
31.993207	3.361027	2.059860	1570.785000
31.974652	3.346342	2.058681	1571.285000
31.955943	3.332134	2.057296	1571.785000
31.932966	3.316960	2.055959	1572.285000
31.913984	3.301605	2.054720	1572.785000
31.892486	3.286035	2.053454	1573.285000
31.871264	3.269622	2.052124	1573.786000
31.849930	3.253177	2.050662	1574.285000
31.837982	3.236071	2.049250	1574.785000
31.816443	3.218693	2.047935	1575.285000
31.790515	3.201617	2.046758	1575.785000
31.772825	3.183950	2.045692	1576.285000
31.759586	3.165806	2.044563	1576.785000
31.743025	3.147749	2.043307	1577.285000
31.723900	3.129415	2.041919	1577.785000
31.703639	3.111316	2.040510	1578.285000
31.685027	3.093529	2.039180	1578.785000
31.667957	3.075697	2.037966	1579.285000
31.647299	3.058034	2.036729	1579.785000
31.625308	3.039995	2.035539	1580.285000
31.604306	3.021590	2.034525	1580.785000
31.584551	3.003393	2.033383	1581.286000
31.565317	2.984805	2.032188	1581.785000
31.547502	2.965954	2.031057	1582.285000
31.525902	2.947072	2.029837	1582.785000
31.505131	2.927754	2.028608	1583.285000
31.485531	2.908526	2.027497	1583.786000
31.466800	2.889343	2.026460	1584.285000
31.447931	2.870045	2.025602	1584.785000
31.427853	2.851088	2.024755	1585.285000
31.411334	2.831863	2.023849	1585.785000
31.392926	2.812575	2.022868	1586.285000
31.367455	2.793864	2.021998	1586.785000
31.351279	2.774975	2.021037	1587.285000
31.330562	2.756289	2.020045	1587.785000
31.313220	2.737825	2.018864	1588.285000
31.293759	2.719245	2.017799	1588.785000
31.278244	2.700591	2.017047	1589.285000
31.260059	2.681903	2.016470	1589.785000
31.245917	2.663618	2.015966	1590.285000
31.221199	2.645982	2.015366	1590.785000
31.200026	2.628595	2.014799	1591.285000
31.180286	2.611447	2.014285	1591.785000
31.158094	2.594449	2.013732	1592.285000
31.137287	2.577134	2.013155	1592.785000
31.121155	2.559871	2.012471	1593.285000
31.104091	2.542861	2.011674	1593.786000
31.085395	2.526003	2.010753	1594.285000
31.068134	2.509248	2.010008	1594.785000
31.047046	2.492526	2.009469	1595.285000
31.027173	2.476418	2.008925	1595.785000
31.012305	2.461128	2.008409	1596.285000
30.994546	2.445651	2.007923	1596.785000
30.974838	2.430415	2.007565	1597.285000
30.956068	2.415825	2.007039	1597.785000
30.934813	2.401803	2.006432	1598.285000
30.917796	2.388366	2.005859	1598.786000
30.897415	2.374583	2.005359	1599.286000
30.878325	2.360465	2.005049	1599.785000
30.856006	2.347067	2.004788	1600.285000
30.836076	2.333699	2.004425	1600.785000
30.817016	2.320805	2.003964	1601.285000
30.796266	2.308189	2.003531	1601.785000
30.778993	2.295433	2.003142	1602.285000
30.758927	2.283685	2.002841	1602.785000
30.737274	2.271816	2.002684	1603.285000
30.720044	2.260099	2.002491	1603.785000
30.700388	2.248280	2.002124	1604.285000
30.679111	2.236495	2.001751	1604.785000
30.659833	2.225363	2.001259	1605.285000
30.642798	2.214149	2.000905	1605.785000
30.622077	2.203618	2.000730	1606.285000
30.602829	2.193639	2.000489	1606.785000
30.588422	2.184229	2.000157	1607.285000
30.570731	2.175683	1.999679	1607.785000
30.550466	2.166728	1.999259	1608.285000
30.528299	2.158429	1.998971	1608.785000
30.510852	2.150668	1.998614	1609.285000
30.492331	2.143258	1.998231	1609.785000
30.475272	2.135940	1.997916	1610.285000
30.454264	2.128844	1.997540	1610.785000
30.435839	2.122746	1.997301	1611.285000
30.418266	2.116784	1.997131	1611.785000
30.399075	2.111269	1.996963	1612.285000
30.372299	2.105964	1.996662	1612.785000
30.356464	2.100592	1.996219	1613.286000
30.339737	2.095685	1.995804	1613.785000
30.320758	2.090854	1.995539	1614.286000
30.300435	2.085960	1.995369	1614.785000
30.280076	2.081459	1.995292	1615.285000
30.262480	2.077217	1.995257	1615.785000
30.240580	2.073955	1.995105	1616.285000
30.218071	2.070583	1.994796	1616.786000
30.199412	2.067150	1.994343	1617.285000
30.179988	2.064757	1.993935	1617.785000
30.162969	2.062776	1.993605	1618.285000
30.145882	2.061103	1.993240	1618.785000
30.123502	2.059269	1.992757	1619.285000
30.103506	2.057795	1.992156	1619.785000
30.086221	2.056924	1.991454	1620.285000
30.064158	2.056316	1.991135	1620.785000
30.043644	2.056561	1.990836	1621.285000
30.024534	2.056964	1.990675	1621.785000
30.005605	2.057455	1.990288	1622.285000
29.983224	2.058096	1.989815	1622.785000
29.961729	2.058779	1.989361	1623.285000
29.942814	2.060179	1.989121	1623.785000
29.923640	2.061962	1.988808	1624.285000
29.905594	2.064095	1.988443	1624.785000
29.879865	2.066230	1.988218	1625.285000
29.857097	2.067981	1.987861	1625.785000
29.844056	2.071047	1.987316	1626.285000
29.822774	2.074038	1.986819	1626.785000
29.802440	2.077791	1.986433	1627.285000
29.786635	2.082293	1.986006	1627.785000
29.772570	2.086624	1.985457	1628.285000
29.747570	2.091413	1.984696	1628.785000
29.725980	2.095901	1.983897	1629.285000
29.705613	2.101083	1.983304	1629.785000
29.686578	2.106723	1.982588	1630.285000
29.671175	2.112372	1.981939	1630.785000
29.655123	2.118286	1.981461	1631.285000
29.630317	2.124201	1.980823	1631.785000
29.610404	2.130540	1.980331	1632.285000
29.594498	2.137122	1.979673	1632.785000
29.574463	2.144056	1.978994	1633.286000
29.553888	2.151246	1.978313	1633.785000
29.535663	2.158683	1.977627	1634.286000
29.517449	2.166065	1.977086	1634.785000
29.499427	2.173299	1.976489	1635.285000
29.478523	2.180969	1.975781	1635.786000
29.459276	2.188654	1.974947	1636.285000
29.439975	2.196671	1.974182	1636.785000
29.416970	2.205128	1.973397	1637.285000
29.402011	2.213552	1.972576	1637.785000
29.382902	2.222282	1.971690	1638.285000
29.359080	2.231095	1.970889	1638.785000
29.343716	2.240212	1.970134	1639.285000
29.327545	2.249673	1.969246	1639.785000
29.304832	2.259679	1.968548	1640.285000
29.285933	2.269253	1.967780	1640.785000
29.269184	2.279069	1.966908	1641.285000
29.249117	2.289423	1.965753	1641.785000
29.231262	2.299326	1.964666	1642.286000
29.210807	2.309617	1.963578	1642.785000
29.189570	2.319755	1.962264	1643.285000
29.171129	2.330420	1.961110	1643.785000
29.144738	2.340769	1.960092	1644.285000
29.124312	2.351296	1.959020	1644.785000
29.109759	2.362557	1.957944	1645.285000
29.091297	2.373959	1.957041	1645.785000
29.073605	2.385638	1.955975	1646.285000
29.055094	2.396741	1.954864	1646.785000
29.036693	2.407871	1.953766	1647.285000
29.017755	2.418902	1.952585	1647.785000
28.990843	2.430122	1.951356	1648.285000
28.976276	2.441674	1.950230	1648.786000
28.958822	2.453620	1.949121	1649.285000
28.933694	2.465048	1.947818	1649.785000
28.915624	2.476388	1.946438	1650.286000
28.889938	2.488283	1.945157	1650.785000
28.869014	2.500032	1.943969	1651.286000
28.859381	2.511910	1.942601	1651.785000
28.840523	2.523847	1.941147	1652.286000
28.812577	2.535918	1.939765	1652.785000
28.794861	2.547775	1.938449	1653.285000
28.775758	2.559719	1.937050	1653.785000
28.754747	2.571721	1.935637	1654.285000
28.734724	2.583702	1.934284	1654.785000
28.720970	2.595750	1.932810	1655.285000
28.701852	2.607587	1.931396	1655.785000
28.677609	2.619299	1.929858	1656.285000
28.658417	2.630849	1.928216	1656.785000
28.639937	2.642478	1.926588	1657.285000
28.624304	2.654143	1.925068	1657.785000
28.607857	2.665807	1.923749	1658.285000
28.582675	2.677344	1.922423	1658.786000
28.566724	2.688643	1.920940	1659.285000
28.547405	2.699834	1.919355	1659.785000
28.529024	2.710767	1.917816	1660.285000
28.510756	2.721647	1.916236	1660.785000
28.489848	2.732605	1.914698	1661.285000
28.468681	2.743894	1.912978	1661.785000
28.446613	2.754846	1.911252	1662.285000
28.427393	2.765841	1.909504	1662.785000
28.399344	2.776461	1.907957	1663.285000
28.378724	2.787503	1.906461	1663.785000
28.361482	2.798477	1.904888	1664.285000
28.348081	2.809748	1.903044	1664.785000
28.326706	2.821083	1.901098	1665.285000
28.304301	2.832368	1.899323	1665.785000
28.285708	2.843291	1.897750	1666.285000
28.268491	2.853877	1.896129	1666.785000
28.255648	2.864005	1.894376	1667.285000
28.235399	2.873770	1.892579	1667.785000
28.212195	2.883827	1.890855	1668.285000
28.194090	2.893896	1.889060	1668.785000
28.177133	2.903477	1.887252	1669.285000
28.159249	2.912729	1.885518	1669.785000
28.138545	2.922245	1.883874	1670.285000
28.114232	2.931548	1.882207	1670.785000
28.089429	2.941005	1.880417	1671.286000
28.073139	2.950289	1.878621	1671.785000
28.059454	2.959479	1.876859	1672.285000
28.036591	2.968425	1.875359	1672.785000
28.014371	2.977454	1.873676	1673.286000
27.996011	2.986532	1.871853	1673.785000
27.975543	2.995562	1.869984	1674.285000
27.956200	3.004299	1.868028	1674.785000
27.937480	3.013226	1.866075	1675.285000
27.916737	3.022369	1.864148	1675.785000
27.894588	3.031574	1.862238	1676.285000
27.875655	3.040521	1.860433	1676.785000
27.858317	3.049133	1.858737	1677.285000
27.839326	3.057210	1.856979	1677.785000
27.821292	3.065567	1.855124	1678.285000
27.797289	3.073505	1.853195	1678.785000
27.775323	3.081085	1.851453	1679.285000
27.760896	3.088499	1.849741	1679.785000
27.744816	3.096189	1.848175	1680.285000
27.724464	3.103559	1.846570	1680.785000
27.707830	3.111133	1.844962	1681.285000
27.686412	3.118470	1.843183	1681.785000
27.665942	3.125743	1.841388	1682.285000
27.646580	3.132534	1.839592	1682.785000
27.633758	3.139385	1.837875	1683.285000
27.612088	3.145787	1.835991	1683.785000
27.591259	3.152329	1.834114	1684.285000
27.569391	3.158666	1.832458	1684.785000
27.548980	3.165383	1.830979	1685.285000
27.527930	3.172131	1.829507	1685.786000
27.508830	3.178862	1.827855	1686.285000
27.491605	3.185446	1.826156	1686.785000
27.475312	3.191837	1.824384	1687.285000
27.456915	3.197718	1.822580	1687.785000
27.432523	3.203809	1.820620	1688.285000
27.410194	3.209866	1.818799	1688.785000
27.390315	3.216187	1.817034	1689.285000
27.370798	3.222284	1.815181	1689.785000
27.352698	3.228336	1.813347	1690.285000
27.333003	3.234073	1.811580	1690.785000
27.315597	3.239543	1.809879	1691.286000
27.296567	3.244915	1.808082	1691.785000
27.275877	3.250390	1.806155	1692.285000
27.257316	3.255905	1.804350	1692.785000
27.239457	3.261190	1.802475	1693.285000
27.218808	3.266188	1.800739	1693.785000
27.191830	3.271046	1.799182	1694.285000
27.179468	3.275617	1.797597	1694.785000
27.161910	3.279856	1.795841	1695.285000
27.136423	3.284645	1.794262	1695.785000
27.118756	3.289505	1.792599	1696.285000
27.099746	3.294181	1.790935	1696.786000
27.083683	3.298686	1.789336	1697.285000
27.059891	3.303483	1.787597	1697.786000
27.038102	3.307911	1.785724	1698.285000
27.016077	3.312540	1.784009	1698.786000
26.998543	3.316829	1.782305	1699.285000
26.982213	3.321111	1.780687	1699.785000
26.968983	3.325071	1.778886	1700.285000
26.948380	3.328840	1.776909	1700.786000
26.920914	3.332374	1.775157	1701.285000
26.909630	3.335624	1.773524	1701.785000
26.890805	3.339298	1.771968	1702.285000
26.873495	3.342781	1.770501	1702.785000
26.847858	3.346136	1.769055	1703.285000
26.831186	3.349308	1.767307	1703.785000
26.813028	3.352636	1.765518	1704.285000
26.795151	3.355459	1.763963	1704.785000
26.775205	3.357950	1.762365	1705.285000
26.757302	3.360297	1.760736	1705.785000
26.740820	3.362364	1.759195	1706.285000
26.718456	3.364061	1.757615	1706.785000
26.695417	3.365945	1.756169	1707.285000
26.677104	3.368430	1.754708	1707.786000
26.659002	3.370906	1.753185	1708.285000
26.636821	3.373353	1.751871	1708.785000
26.617325	3.375566	1.750283	1709.285000
26.593591	3.377660	1.748562	1709.785000
26.582375	3.379830	1.746845	1710.285000
26.567023	3.381818	1.745225	1710.785000
26.543414	3.383448	1.743714	1711.285000
26.526004	3.384796	1.742126	1711.785000
26.508534	3.386241	1.740352	1712.285000
26.489747	3.387265	1.738608	1712.785000
26.471911	3.387955	1.736879	1713.285000
26.454308	3.388642	1.735286	1713.785000
26.433473	3.389243	1.733701	1714.285000
26.411351	3.390207	1.732378	1714.785000
26.393431	3.391284	1.730948	1715.285000
26.373526	3.392024	1.729438	1715.785000
26.345206	3.392657	1.727759	1716.285000
26.326892	3.393092	1.726173	1716.786000
26.307623	3.393336	1.724585	1717.285000
26.286383	3.393583	1.722915	1717.785000
26.273555	3.393362	1.721168	1718.285000
26.255711	3.393135	1.719694	1718.785000
26.239313	3.392834	1.718121	1719.285000
26.222621	3.392306	1.716440	1719.785000
26.204268	3.391852	1.714781	1720.285000
26.186366	3.391089	1.713294	1720.786000
26.165184	3.390044	1.711910	1721.285000
26.145721	3.389077	1.710546	1721.785000
26.125815	3.388381	1.708928	1722.285000
26.107491	3.387651	1.707282	1722.785000
26.085438	3.386415	1.705594	1723.285000
26.071127	3.385221	1.704146	1723.785000
26.051661	3.384398	1.702810	1724.285000
26.033177	3.383219	1.701404	1724.785000
26.013608	3.381852	1.699956	1725.285000
25.992831	3.380559	1.698215	1725.785000
25.972806	3.378695	1.696689	1726.285000
25.952081	3.376483	1.695122	1726.785000
25.933780	3.374516	1.693653	1727.285000
25.914040	3.372661	1.692011	1727.785000
25.897757	3.370513	1.690346	1728.285000
25.878568	3.368180	1.688642	1728.785000
25.855650	3.365742	1.686963	1729.285000
25.831523	3.363180	1.685486	1729.785000
25.813515	3.360585	1.684006	1730.285000
25.793213	3.357596	1.682607	1730.785000
25.771704	3.354412	1.681169	1731.285000
25.752079	3.351326	1.679531	1731.786000
25.734181	3.347838	1.677955	1732.285000
25.712688	3.344163	1.676468	1732.785000
25.694886	3.340169	1.674847	1733.285000
25.673082	3.335872	1.673339	1733.785000
25.656396	3.332099	1.671999	1734.285000
25.634943	3.328289	1.670383	1734.785000
25.617180	3.324099	1.668699	1735.286000
25.600814	3.319648	1.667179	1735.785000
25.581969	3.315443	1.665650	1736.286000
25.562441	3.311143	1.664055	1736.785000
25.542392	3.306929	1.662491	1737.285000
25.523390	3.302798	1.660962	1737.785000
25.502123	3.298313	1.659298	1738.285000
25.481852	3.293961	1.657577	1738.785000
25.464695	3.289021	1.656018	1739.285000
25.447095	3.283632	1.654456	1739.786000
25.427136	3.278250	1.653025	1740.285000
25.409344	3.273474	1.651677	1740.785000
25.385065	3.268632	1.650289	1741.285000
25.365109	3.263137	1.648895	1741.785000
25.344517	3.257328	1.647297	1742.285000
25.327345	3.251240	1.645711	1742.785000
25.309020	3.245029	1.644095	1743.285000
25.288481	3.239124	1.642451	1743.785000
25.269201	3.232763	1.640964	1744.285000
25.251026	3.226442	1.639428	1744.785000
25.231390	3.219987	1.637954	1745.285000
25.211652	3.213136	1.636484	1745.785000
25.193411	3.206448	1.635192	1746.285000
25.175443	3.199362	1.633772	1746.785000
25.155399	3.191938	1.632253	1747.285000
25.137265	3.184899	1.630870	1747.785000
25.117125	3.177127	1.629378	1748.285000
25.098607	3.169315	1.627862	1748.785000
25.077745	3.161965	1.626429	1749.285000
25.056696	3.154091	1.624976	1749.785000
25.038022	3.146258	1.623468	1750.285000
25.020197	3.138259	1.621868	1750.785000
24.999985	3.129842	1.620188	1751.285000
24.976300	3.121444	1.618653	1751.785000
24.955516	3.112969	1.617258	1752.285000
24.933358	3.104188	1.615823	1752.785000
24.915743	3.095070	1.614346	1753.285000
24.895742	3.085558	1.612742	1753.785000
24.875219	3.076527	1.611017	1754.286000
24.851436	3.067019	1.609523	1754.785000
24.832843	3.056618	1.608058	1755.285000
24.817017	3.045905	1.606537	1755.785000
24.796814	3.034975	1.605004	1756.285000
24.779730	3.023609	1.603332	1756.785000
24.763193	3.011937	1.601648	1757.285000
24.742655	3.000115	1.600025	1757.785000
24.724276	2.988413	1.598372	1758.285000
24.702041	2.977106	1.596800	1758.786000
24.683346	2.965697	1.595357	1759.285000
24.664733	2.954053	1.593796	1759.786000
24.644871	2.942132	1.592253	1760.285000
24.628833	2.930226	1.590703	1760.785000
24.604111	2.918350	1.589244	1761.285000
24.580575	2.905869	1.587705	1761.786000
24.568242	2.892596	1.586158	1762.285000
24.551623	2.878737	1.584641	1762.785000
24.530566	2.864605	1.583176	1763.285000
24.508453	2.850467	1.581647	1763.785000
24.485305	2.836369	1.580372	1764.285000
24.467067	2.821734	1.579159	1764.785000
24.454578	2.806519	1.577820	1765.285000
24.433444	2.791252	1.576433	1765.785000
24.413242	2.775488	1.575028	1766.285000
24.389706	2.759328	1.573572	1766.785000
24.365625	2.742993	1.572109	1767.285000
24.348027	2.726019	1.570514	1767.785000
24.333967	2.708684	1.568811	1768.285000
24.311050	2.690501	1.567233	1768.785000
24.294415	2.671170	1.565755	1769.285000
24.277493	2.652173	1.564141	1769.785000
24.259741	2.632638	1.562603	1770.285000
24.241401	2.613282	1.560949	1770.786000
24.221606	2.594125	1.559398	1771.285000
24.202249	2.574315	1.558057	1771.785000
24.181274	2.554133	1.556857	1772.285000
24.164157	2.534055	1.555565	1772.785000
24.145508	2.513531	1.554136	1773.285000
24.123134	2.492130	1.552619	1773.785000
24.094374	2.469963	1.551205	1774.286000
24.078378	2.446884	1.549805	1774.785000
24.061859	2.422665	1.548340	1775.285000
24.043506	2.397380	1.547023	1775.785000
24.016150	2.371707	1.545654	1776.285000
23.998458	2.345213	1.544233	1776.785000
23.978057	2.318059	1.542787	1777.285000
23.957753	2.290250	1.541284	1777.785000
23.942418	2.262136	1.539873	1778.286000
23.925726	2.233359	1.538535	1778.786000
23.907768	2.204087	1.537383	1779.285000
23.886923	2.174729	1.536169	1779.785000
23.867084	2.144997	1.534872	1780.285000
23.848022	2.115121	1.533454	1780.785000
23.829703	2.084972	1.532008	1781.285000
23.811870	2.054177	1.530835	1781.786000
23.789049	2.022601	1.529819	1782.285000
23.771108	1.990067	1.528971	1782.785000
23.753114	1.957293	1.527982	1783.285000
23.729091	1.923803	1.526771	1783.785000
23.709247	1.890047	1.525515	1784.285000
23.691315	1.855939	1.524345	1784.785000
23.674221	1.820848	1.523336	1785.286000
23.651420	1.785173	1.522241	1785.785000
23.630194	1.748907	1.521307	1786.285000
23.610300	1.712192	1.520417	1786.785000
23.596335	1.674986	1.519553	1787.285000
23.576124	1.637312	1.518738	1787.785000
23.554611	1.599382	1.518148	1788.286000
23.534484	1.561654	1.517342	1788.785000
23.514285	1.524327	1.516468	1789.285000
23.499161	1.486742	1.515809	1789.785000
23.477673	1.448980	1.515363	1790.285000
23.459448	1.411326	1.514842	1790.785000
23.441288	1.374145	1.514283	1791.285000
23.422671	1.336885	1.513897	1791.785000
23.406842	1.300476	1.513457	1792.285000
23.388861	1.264166	1.513002	1792.786000
23.369768	1.228335	1.512656	1793.285000
23.350246	1.193556	1.512287	1793.785000
23.331389	1.159094	1.512134	1794.286000
23.312078	1.125190	1.512185	1794.785000
23.294131	1.091852	1.512198	1795.285000
23.283472	1.058713	1.512249	1795.785000
23.260156	1.026802	1.512052	1796.285000
23.244925	0.996062	1.511965	1796.785000
23.223252	0.965890	1.511834	1797.285000
23.201504	0.936503	1.511865	1797.785000
23.186719	0.907539	1.511994	1798.285000
23.170027	0.879228	1.511973	1798.786000
23.150268	0.851876	1.511943	1799.285000
23.133551	0.825337	1.511948	1799.785000
23.111148	0.799312	1.511945	1800.285000
23.093185	0.773878	1.512140	1800.785000
23.074130	0.748944	1.512411	1801.285000
23.055320	0.724808	1.512619	1801.785000
23.037063	0.701328	1.512779	1802.285000
23.014047	0.678307	1.512938	1802.785000
23.000112	0.655768	1.513166	1803.285000
22.974602	0.633232	1.513463	1803.785000
22.953830	0.611561	1.513673	1804.285000
22.938507	0.591231	1.513911	1804.785000
22.920447	0.570984	1.514137	1805.285000
22.895792	0.551831	1.514386	1805.785000
22.877069	0.533552	1.514715	1806.285000
22.858402	0.515667	1.515002	1806.785000
22.845483	0.498117	1.515167	1807.285000
22.826504	0.480748	1.515121	1807.785000
22.804368	0.464376	1.515075	1808.285000
22.784873	0.448971	1.514942	1808.785000
22.770155	0.434360	1.514982	1809.285000
22.747324	0.420337	1.515080	1809.785000
22.725037	0.406979	1.515276	1810.285000
22.708765	0.393970	1.515375	1810.785000
22.688918	0.381326	1.515478	1811.285000
22.676295	0.369280	1.515718	1811.785000
22.652865	0.357719	1.515807	1812.285000
22.629671	0.346566	1.515834	1812.785000
22.614344	0.335800	1.515913	1813.285000
22.598867	0.325370	1.515984	1813.785000
22.577817	0.315329	1.516161	1814.285000
22.555347	0.306265	1.516316	1814.785000
22.533740	0.297662	1.516320	1815.285000
22.518600	0.288787	1.516313	1815.785000
22.504489	0.280241	1.516420	1816.285000
22.486063	0.272020	1.516558	1816.785000
22.462858	0.264665	1.516614	1817.285000
22.447487	0.257600	1.516628	1817.785000
22.429396	0.250572	1.516698	1818.285000
22.408602	0.243669	1.516665	1818.785000
22.382143	0.236865	1.516572	1819.285000
22.362727	0.230679	1.516499	1819.786000
22.348212	0.224668	1.516415	1820.285000
22.328839	0.218808	1.516458	1820.785000
22.307934	0.213369	1.516442	1821.285000
22.293143	0.208343	1.516445	1821.785000
22.274020	0.203528	1.516411	1822.285000
22.248055	0.198855	1.516350	1822.785000
22.229050	0.194150	1.516362	1823.285000
22.215914	0.189531	1.516407	1823.785000
22.203088	0.185152	1.516347	1824.286000
22.180249	0.181252	1.516390	1824.785000
22.155890	0.178280	1.516592	1825.285000
22.134106	0.175694	1.516740	1825.785000
22.117680	0.173040	1.516810	1826.285000
22.099984	0.170441	1.516807	1826.785000
22.083794	0.168120	1.516726	1827.286000
22.065657	0.166453	1.516645	1827.785000
22.047240	0.165419	1.516494	1828.285000
22.036783	0.165333	1.516284	1828.785000
22.017056	0.166118	1.516177	1829.286000
21.993820	0.167823	1.515985	1829.785000
21.975510	0.170019	1.515822	1830.285000
21.956546	0.172685	1.515827	1830.785000
21.934242	0.176141	1.515847	1831.285000
21.918255	0.180666	1.515824	1831.785000
21.898460	0.186003	1.515898	1832.285000
21.875502	0.192370	1.515859	1832.786000
21.858859	0.199416	1.515824	1833.285000
21.838583	0.207720	1.515724	1833.786000
21.822029	0.216711	1.515846	1834.285000
21.807070	0.226377	1.515838	1834.786000
21.788949	0.237448	1.515755	1835.285000
21.768540	0.249549	1.515604	1835.785000
21.753933	0.262329	1.515506	1836.285000
21.734805	0.275717	1.515307	1836.785000
21.716452	0.290064	1.515067	1837.285000
21.699105	0.305240	1.514729	1837.785000
21.680455	0.321114	1.513930	1838.285000
21.655191	0.337464	1.513144	1838.785000
21.633232	0.354249	1.512675	1839.285000
21.621213	0.371965	1.512166	1839.785000
21.602086	0.390496	1.511675	1840.286000
21.578625	0.409345	1.511167	1840.785000
21.560244	0.429092	1.510481	1841.285000
21.540322	0.450093	1.509706	1841.785000
21.525664	0.471584	1.508823	1842.285000
21.507867	0.493925	1.507777	1842.786000
21.486164	0.516395	1.506519	1843.285000
21.467243	0.539345	1.505103	1843.785000
21.449943	0.562790	1.503548	1844.285000
21.435824	0.586564	1.502190	1844.785000
21.419418	0.609959	1.500995	1845.285000
21.400591	0.632979	1.499904	1845.785000
21.380423	0.656157	1.498762	1846.285000
21.357412	0.679360	1.497480	1846.785000
21.336145	0.702662	1.495917	1847.285000
21.322644	0.726681	1.494423	1847.785000
21.303408	0.750989	1.492804	1848.285000
21.283882	0.775701	1.491177	1848.785000
21.264036	0.800473	1.489631	1849.285000
21.244937	0.825521	1.488063	1849.785000
21.221049	0.850773	1.486423	1850.285000
21.203997	0.875894	1.484655	1850.785000
21.183687	0.900777	1.482696	1851.285000
21.165337	0.925887	1.480811	1851.785000
21.147224	0.951065	1.478871	1852.285000
21.129908	0.975965	1.476726	1852.785000
21.112611	1.000430	1.474677	1853.285000
21.087662	1.024432	1.472696	1853.785000
21.074348	1.047624	1.470818	1854.285000
21.055707	1.070321	1.468854	1854.785000
21.034995	1.092661	1.466696	1855.285000
21.014826	1.114815	1.464490	1855.785000
20.990810	1.137251	1.462229	1856.285000
20.974530	1.159561	1.460050	1856.785000
20.964098	1.181309	1.457978	1857.285000
20.947917	1.202271	1.455912	1857.785000
20.923592	1.222510	1.453853	1858.285000
20.907834	1.242046	1.451698	1858.785000
20.886535	1.261282	1.449355	1859.285000
20.870828	1.280004	1.447189	1859.785000
20.853746	1.298452	1.445278	1860.285000
20.834668	1.316619	1.443339	1860.785000
20.816046	1.334225	1.441439	1861.285000
20.796324	1.351394	1.439438	1861.785000
20.776615	1.368046	1.437212	1862.285000
20.755331	1.384181	1.435058	1862.785000
20.734698	1.399928	1.432823	1863.285000
20.714842	1.415486	1.430579	1863.785000
20.696086	1.431533	1.428458	1864.285000
20.677055	1.447502	1.426400	1864.785000
20.661080	1.463413	1.424340	1865.285000
20.640926	1.478642	1.422108	1865.785000
20.619776	1.493509	1.419884	1866.285000
20.605417	1.507865	1.417932	1866.785000
20.587527	1.522365	1.415926	1867.285000
20.569627	1.536868	1.414020	1867.785000
20.550747	1.551367	1.411904	1868.285000
20.532490	1.565662	1.409843	1868.785000
20.513590	1.579413	1.407621	1869.285000
20.492395	1.593541	1.405340	1869.785000
20.473835	1.607625	1.403150	1870.285000
20.452576	1.621637	1.401064	1870.785000
20.433996	1.635148	1.398842	1871.285000
20.415168	1.648751	1.396756	1871.785000
20.398695	1.662666	1.394786	1872.285000
20.380915	1.676523	1.392766	1872.785000
20.360652	1.690221	1.390654	1873.285000
20.345095	1.703792	1.388550	1873.785000
20.323469	1.716813	1.386356	1874.285000
20.308021	1.730081	1.384254	1874.785000
20.284384	1.743599	1.382328	1875.285000
20.269121	1.756713	1.380499	1875.786000
20.253234	1.769593	1.378625	1876.285000
20.232696	1.781729	1.376568	1876.785000
20.210610	1.793271	1.374593	1877.285000
20.193173	1.804726	1.372601	1877.785000
20.176069	1.816160	1.370640	1878.285000
20.158374	1.827619	1.368738	1878.785000
20.138190	1.838845	1.366681	1879.285000
20.116564	1.850229	1.364554	1879.785000
20.097234	1.861671	1.362676	1880.285000
20.079033	1.872649	1.360747	1880.786000
20.060134	1.883011	1.358883	1881.286000
20.039355	1.893707	1.356892	1881.785000
20.019195	1.904126	1.354870	1882.285000
19.995940	1.913788	1.352912	1882.785000
19.970825	1.923308	1.350970	1883.285000
19.954625	1.932987	1.348844	1883.785000
19.938488	1.942700	1.346714	1884.285000
19.920820	1.952422	1.344587	1884.785000
19.896963	1.962581	1.342603	1885.285000
19.878711	1.972696	1.340697	1885.785000
19.865605	1.982228	1.338878	1886.285000
19.845859	1.991415	1.336967	1886.785000
19.820466	2.000150	1.335091	1887.285000
19.802055	2.008212	1.333285	1887.785000
19.785728	2.016218	1.331497	1888.286000
19.768319	2.024242	1.329621	1888.785000
19.748910	2.031532	1.327821	1889.285000
19.730864	2.038843	1.326059	1889.785000
19.713557	2.046197	1.324185	1890.285000
19.690213	2.053267	1.322349	1890.785000
19.668259	2.059601	1.320535	1891.285000
19.646860	2.065961	1.318799	1891.785000
19.627818	2.072763	1.317081	1892.285000
19.601964	2.078897	1.315221	1892.785000
19.587824	2.084551	1.313285	1893.285000
19.567426	2.090464	1.311424	1893.785000
19.543283	2.096328	1.309574	1894.285000
19.518287	2.102164	1.307669	1894.785000
19.499981	2.107576	1.305789	1895.285000
19.480648	2.112750	1.303877	1895.785000
19.466791	2.117966	1.301912	1896.285000
19.448853	2.123138	1.299895	1896.785000
19.429534	2.127845	1.298011	1897.285000
19.402569	2.132047	1.296305	1897.785000
19.389872	2.136023	1.294612	1898.285000
19.372314	2.140287	1.292853	1898.785000
19.348108	2.144270	1.291203	1899.285000
19.321238	2.147907	1.289538	1899.785000
19.302996	2.151445	1.287695	1900.285000
19.285402	2.154867	1.285939	1900.785000
19.269475	2.158717	1.284326	1901.286000
19.251016	2.162057	1.282747	1901.785000
19.229722	2.164636	1.281181	1902.285000
19.208001	2.166613	1.279560	1902.785000
19.187628	2.168552	1.277906	1903.285000
19.168727	2.170754	1.276321	1903.785000
19.150484	2.172558	1.274692	1904.285000
19.130769	2.173663	1.272977	1904.785000
19.110581	2.174852	1.271320	1905.285000
19.091175	2.176372	1.269789	1905.785000
19.070095	2.178031	1.268230	1906.285000
19.051134	2.179123	1.266885	1906.786000
19.030054	2.179560	1.265487	1907.285000
19.009210	2.179629	1.264012	1907.785000
18.991779	2.179801	1.262564	1908.286000
18.971608	2.180009	1.260953	1908.785000
18.952453	2.180230	1.259258	1909.285000
18.931370	2.179756	1.257656	1909.785000
18.909969	2.179113	1.256017	1910.285000
18.893277	2.178417	1.254519	1910.785000
18.874662	2.177929	1.253137	1911.286000
18.854663	2.176708	1.251666	1911.785000
18.833043	2.175381	1.250190	1912.285000
18.811583	2.174110	1.248657	1912.785000
18.795223	2.172780	1.247171	1913.285000
18.775179	2.171338	1.245617	1913.785000
18.755572	2.170079	1.244130	1914.285000
18.737107	2.168914	1.242674	1914.785000
18.717411	2.167130	1.241256	1915.285000
18.700151	2.164824	1.239909	1915.785000
18.681319	2.162476	1.238482	1916.285000
18.662534	2.160512	1.237044	1916.785000
18.639835	2.158877	1.235796	1917.285000
18.619352	2.156975	1.234627	1917.785000
18.597610	2.155344	1.233458	1918.285000
18.576484	2.153608	1.232281	1918.785000
18.555977	2.151410	1.230931	1919.285000
18.536927	2.149275	1.229389	1919.785000
18.516637	2.147314	1.228007	1920.285000
18.497947	2.145055	1.226647	1920.785000
18.475385	2.142580	1.225438	1921.285000
18.452865	2.140419	1.224216	1921.785000
18.434262	2.138586	1.222928	1922.286000
18.412005	2.136591	1.221537	1922.786000
18.392898	2.134153	1.220213	1923.285000
18.372771	2.131436	1.218944	1923.785000
18.348808	2.128709	1.217519	1924.285000
18.329988	2.126126	1.216078	1924.785000
18.307587	2.123338	1.214676	1925.285000
18.287244	2.120379	1.213350	1925.785000
18.271329	2.117802	1.212077	1926.285000
18.251953	2.115393	1.210875	1926.785000
18.226946	2.113047	1.209607	1927.285000
18.208038	2.110965	1.208431	1927.785000
18.187528	2.108851	1.207289	1928.285000
18.164145	2.106720	1.206227	1928.785000
18.144340	2.104482	1.204962	1929.285000
18.123825	2.101870	1.203667	1929.785000
18.102653	2.099522	1.202293	1930.286000
18.084527	2.097899	1.201164	1930.785000
18.072363	2.096162	1.200037	1931.285000
18.051714	2.094273	1.198799	1931.785000
18.029100	2.092272	1.197501	1932.285000
18.007143	2.090771	1.196288	1932.786000
17.992603	2.089174	1.194953	1933.285000
17.974111	2.087186	1.193670	1933.786000
17.953993	2.085620	1.192627	1934.285000
17.929684	2.084286	1.191550	1934.785000
17.909218	2.083676	1.190416	1935.285000
17.890933	2.083365	1.189538	1935.786000
17.874873	2.082179	1.188498	1936.285000
17.856180	2.080517	1.187166	1936.785000
17.829922	2.079033	1.185765	1937.285000
17.810835	2.078053	1.184377	1937.785000
17.788312	2.077140	1.183107	1938.285000
17.768290	2.075837	1.181871	1938.785000
17.749947	2.074845	1.180501	1939.285000
17.732240	2.074415	1.179219	1939.785000
17.715652	2.074006	1.178097	1940.285000
17.697379	2.073417	1.177065	1940.785000
17.670981	2.072981	1.175982	1941.285000
17.648019	2.072781	1.174887	1941.785000
17.629015	2.072350	1.173791	1942.286000
17.613849	2.071849	1.172711	1942.785000
17.589204	2.071519	1.171504	1943.285000
17.575006	2.071483	1.169992	1943.785000
17.548973	2.071138	1.168508	1944.285000
17.529721	2.070463	1.167290	1944.785000
17.514038	2.070170	1.166120	1945.285000
17.497426	2.069732	1.165014	1945.785000
17.478537	2.069090	1.163722	1946.285000
17.455478	2.068672	1.162350	1946.785000
17.432425	2.068443	1.160940	1947.285000
17.413776	2.068361	1.159450	1947.785000
17.393001	2.068314	1.158120	1948.285000
17.382162	2.067943	1.156760	1948.785000
17.355136	2.067393	1.155335	1949.285000
17.338539	2.067147	1.153902	1949.785000
17.318375	2.066852	1.152605	1950.285000
17.299484	2.066014	1.151149	1950.785000
17.280304	2.064993	1.149707	1951.285000
17.259384	2.064492	1.148349	1951.785000
17.238843	2.064012	1.147101	1952.285000
17.224742	2.063271	1.145796	1952.785000
17.206575	2.062093	1.144570	1953.285000
17.181326	2.061013	1.143291	1953.785000
17.158107	2.060638	1.141988	1954.285000
17.142117	2.059986	1.140627	1954.785000
17.127195	2.058550	1.139250	1955.285000
17.102161	2.057031	1.137881	1955.785000
17.077585	2.055669	1.136437	1956.285000
17.063120	2.053988	1.134901	1956.785000
17.041973	2.052197	1.133364	1957.286000
17.019268	2.050473	1.131677	1957.785000
16.999821	2.048843	1.130073	1958.285000
16.980179	2.047171	1.128580	1958.785000
16.967542	2.044986	1.127196	1959.285000
16.947593	2.042498	1.125875	1959.785000
16.922485	2.039797	1.124566	1960.285000
16.909561	2.037039	1.123149	1960.785000
16.893581	2.034124	1.121648	1961.286000
16.874163	2.031171	1.120309	1961.785000
16.853406	2.028154	1.118928	1962.286000
16.831503	2.025425	1.117494	1962.785000
16.813341	2.022215	1.116046	1963.285000
16.791979	2.018828	1.114631	1963.785000
16.768383	2.015734	1.113114	1964.285000
16.750671	2.012189	1.111621	1964.785000
16.739090	2.007708	1.110250	1965.285000
16.717935	2.003112	1.108760	1965.785000
16.701746	1.998494	1.107393	1966.285000
16.683466	1.994081	1.105952	1966.785000
16.670438	1.989514	1.104309	1967.285000
16.644439	1.985005	1.102683	1967.786000
16.628387	1.980400	1.101302	1968.285000
16.611536	1.975143	1.099937	1968.785000
16.590358	1.969203	1.098528	1969.285000
16.568134	1.963478	1.097259	1969.785000
16.549127	1.957625	1.095863	1970.285000
16.531625	1.951221	1.094369	1970.785000
16.510565	1.944132	1.092815	1971.285000
16.491531	1.936935	1.091367	1971.785000
16.473672	1.929346	1.090052	1972.286000
16.450661	1.921422	1.088864	1972.785000
16.433829	1.912924	1.087700	1973.285000
16.413174	1.904425	1.086357	1973.785000
16.390481	1.895949	1.084814	1974.285000
16.376393	1.886765	1.083260	1974.786000
16.353866	1.877071	1.081599	1975.285000
16.329042	1.867721	1.080016	1975.786000
16.313074	1.858373	1.078559	1976.285000
16.296066	1.848272	1.077067	1976.785000
16.279007	1.837458	1.075511	1977.285000
16.257366	1.826072	1.073973	1977.786000
16.232312	1.814613	1.072425	1978.285000
16.217861	1.803025	1.070838	1978.786000
16.197740	1.791399	1.069386	1979.285000
16.178348	1.778932	1.068037	1979.785000
16.152216	1.765446	1.066641	1980.285000
16.139270	1.751589	1.065240	1980.785000
16.117062	1.737340	1.063704	1981.285000
16.097339	1.722547	1.062275	1981.785000
16.076959	1.707302	1.060910	1982.286000
16.058769	1.692633	1.059495	1982.785000
16.042194	1.677345	1.058053	1983.285000
16.021116	1.660977	1.056576	1983.785000
15.997678	1.643919	1.055336	1984.285000
15.980853	1.626049	1.054052	1984.785000
15.959543	1.607893	1.052757	1985.285000
15.940656	1.589279	1.051516	1985.785000
15.925085	1.569731	1.050172	1986.285000
15.903259	1.549688	1.048906	1986.785000
15.888508	1.529369	1.047579	1987.285000
15.869125	1.509207	1.046242	1987.786000
15.845933	1.488758	1.044855	1988.285000
15.827754	1.467332	1.043558	1988.785000
15.803392	1.445473	1.042324	1989.285000
15.786755	1.423307	1.040981	1989.785000
15.770142	1.400233	1.039685	1990.285000
15.751465	1.375941	1.038448	1990.785000
15.729929	1.350891	1.037235	1991.285000
15.709545	1.325681	1.036013	1991.785000
15.691370	1.300185	1.034763	1992.285000
15.672527	1.274042	1.033528	1992.785000
15.652960	1.247059	1.032372	1993.285000
15.634716	1.219017	1.031311	1993.785000
15.614360	1.190370	1.030225	1994.285000
15.596075	1.161393	1.029391	1994.785000
15.576376	1.131948	1.028538	1995.285000
15.557404	1.101786	1.027716	1995.785000
15.538498	1.071035	1.026918	1996.285000
15.523871	1.039550	1.025887	1996.785000
15.502688	1.008018	1.024777	1997.285000
15.481878	0.976372	1.023543	1997.785000
15.463865	0.943768	1.022236	1998.285000
15.445580	0.910798	1.021136	1998.785000
15.431534	0.877721	1.020261	1999.285000
15.411151	0.844718	1.019733	1999.785000
15.390192	0.811578	1.019173	2000.285000
15.365668	0.778631	1.018535	2000.785000
15.347665	0.745457	1.018112	2001.285000
15.333131	0.712543	1.017777	2001.785000
15.316824	0.680290	1.017372	2002.285000
15.297976	0.648568	1.016859	2002.785000
15.279130	0.617492	1.016375	2003.285000
15.261001	0.587521	1.015988	2003.785000
15.235988	0.558519	1.015815	2004.285000
15.220728	0.530149	1.015837	2004.785000
15.201859	0.502878	1.015878	2005.285000
15.181418	0.476593	1.015872	2005.785000
15.157913	0.451091	1.015841	2006.285000
15.141962	0.426194	1.015816	2006.785000
15.120599	0.402474	1.015736	2007.285000
15.098421	0.380225	1.015734	2007.785000
15.080119	0.359336	1.015809	2008.285000
15.066379	0.339638	1.015864	2008.785000
15.044818	0.320971	1.015802	2009.285000
15.021530	0.303440	1.015936	2009.785000
15.003015	0.287303	1.016037	2010.285000
14.987106	0.272195	1.016139	2010.785000
14.968906	0.257834	1.016229	2011.285000
14.947843	0.244460	1.016322	2011.785000
14.926617	0.231805	1.016529	2012.285000
14.907837	0.219716	1.016701	2012.785000
14.885839	0.208319	1.016933	2013.286000
14.867655	0.198093	1.017069	2013.785000
14.844213	0.189170	1.017155	2014.285000
14.827294	0.181566	1.017094	2014.786000
14.808785	0.174618	1.016966	2015.285000
14.789215	0.168521	1.016952	2015.785000
14.764789	0.163857	1.016917	2016.285000
14.747412	0.161119	1.016830	2016.785000
14.732124	0.159986	1.016798	2017.285000
14.712241	0.160212	1.016891	2017.785000
14.692350	0.161833	1.016959	2018.285000
14.672556	0.164747	1.017010	2018.785000
14.653027	0.169499	1.016976	2019.285000
14.627943	0.176089	1.016997	2019.785000
14.611798	0.184461	1.016900	2020.285000
14.593304	0.194544	1.016622	2020.785000
14.570697	0.206280	1.016346	2021.285000
14.547971	0.220055	1.016010	2021.785000
14.525047	0.235130	1.015813	2022.285000
14.504809	0.251391	1.015550	2022.785000
14.487307	0.269223	1.014987	2023.285000
14.469537	0.288394	1.014289	2023.785000
14.451968	0.307990	1.013557	2024.285000
14.437134	0.327594	1.012766	2024.785000
14.417279	0.347294	1.011926	2025.285000
14.399219	0.367260	1.011107	2025.785000
14.380405	0.386859	1.010115	2026.285000
14.360043	0.406274	1.008930	2026.785000
14.340079	0.425838	1.007849	2027.285000
14.320088	0.445703	1.006611	2027.785000
14.298846	0.465747	1.005123	2028.285000
14.276476	0.486112	1.003535	2028.785000
14.254923	0.507229	1.001855	2029.285000
14.231635	0.528751	1.000031	2029.785000
14.212817	0.550277	0.997999	2030.285000
14.196155	0.572199	0.995868	2030.785000
14.172888	0.594320	0.993776	2031.285000
14.152150	0.616710	0.991845	2031.785000
14.134626	0.639260	0.989978	2032.285000
14.113436	0.661564	0.988124	2032.785000
14.094140	0.683617	0.985964	2033.286000
14.071796	0.705648	0.983832	2033.785000
14.052074	0.727389	0.981700	2034.286000
14.033777	0.749116	0.979686	2034.785000
14.015872	0.770696	0.977617	2035.285000
13.994186	0.791943	0.975484	2035.785000
13.974317	0.812776	0.973273	2036.285000
13.956054	0.832903	0.970949	2036.785000
13.938588	0.852271	0.968703	2037.285000
13.918634	0.871152	0.966452	2037.785000
13.896494	0.889621	0.964268	2038.285000
13.876905	0.907942	0.962088	2038.786000
13.856359	0.926154	0.960277	2039.285000
13.834748	0.943674	0.958420	2039.785000
13.812939	0.961011	0.956329	2040.285000
13.795996	0.978268	0.954220	2040.785000
13.776425	0.995500	0.952191	2041.285000
13.755122	1.012689	0.950101	2041.785000
13.737191	1.029751	0.948107	2042.285000
13.716582	1.046833	0.945952	2042.785000
13.698045	1.063815	0.943764	2043.285000
13.677401	1.080686	0.941662	2043.785000
13.656528	1.097635	0.939592	2044.285000
13.638107	1.114314	0.937476	2044.785000
13.619048	1.130652	0.935414	2045.285000
13.600479	1.146665	0.933338	2045.785000
13.581165	1.162282	0.931522	2046.285000
13.562329	1.178030	0.929548	2046.785000
13.543102	1.193677	0.927462	2047.285000
13.523574	1.209034	0.925471	2047.786000
13.505073	1.224188	0.923600	2048.285000
13.485779	1.238845	0.921729	2048.786000
13.465878	1.252770	0.919877	2049.285000
13.446383	1.266296	0.917952	2049.785000
13.427765	1.279516	0.915991	2050.285000
13.408605	1.292838	0.914132	2050.785000
13.389299	1.305527	0.912294	2051.285000
13.371633	1.317551	0.910590	2051.785000
13.351199	1.329355	0.908903	2052.285000
13.332031	1.340798	0.907123	2052.785000
13.313109	1.351976	0.905406	2053.285000
13.293903	1.362552	0.903565	2053.785000
13.272040	1.372435	0.901797	2054.285000
13.252176	1.382447	0.900235	2054.785000
13.229544	1.392409	0.898711	2055.285000
13.209357	1.401897	0.897106	2055.785000
13.188625	1.410539	0.895507	2056.285000
13.169009	1.418696	0.893815	2056.785000
13.151445	1.426668	0.892364	2057.285000
13.133333	1.434080	0.890809	2057.785000
13.114168	1.441035	0.889081	2058.285000
13.090813	1.448036	0.887248	2058.786000
13.068580	1.454652	0.885413	2059.285000
13.051421	1.460559	0.883657	2059.785000
13.033542	1.466291	0.881821	2060.286000
13.013685	1.471588	0.880017	2060.785000
12.991684	1.476304	0.878174	2061.285000
12.969735	1.480335	0.876557	2061.785000
12.950175	1.484405	0.874894	2062.286000
12.929722	1.488427	0.873399	2062.785000
12.914722	1.492322	0.871874	2063.285000
12.893279	1.495775	0.870481	2063.785000
12.875013	1.498908	0.868831	2064.285000
12.853658	1.501661	0.867176	2064.785000
12.837812	1.503755	0.865719	2065.285000
12.819636	1.505493	0.864235	2065.785000
12.798290	1.507165	0.862781	2066.285000
12.777597	1.508937	0.861447	2066.785000
12.758312	1.510096	0.860033	2067.285000
12.737433	1.510541	0.858680	2067.785000
12.720950	1.511127	0.857168	2068.285000
12.702028	1.511570	0.855756	2068.785000
12.679268	1.511944	0.854378	2069.285000
12.660385	1.512060	0.852857	2069.785000
12.640992	1.511599	0.851370	2070.285000
12.619506	1.511029	0.849823	2070.785000
12.599147	1.510058	0.848283	2071.285000
12.579636	1.508658	0.846889	2071.785000
12.560791	1.506928	0.845515	2072.285000
12.542220	1.504591	0.844257	2072.785000
12.525066	1.502145	0.843027	2073.285000
12.507996	1.499541	0.841738	2073.785000
12.487150	1.496476	0.840253	2074.285000
12.461795	1.492802	0.838653	2074.785000
12.440928	1.489007	0.837211	2075.285000
12.421005	1.485107	0.835694	2075.786000
12.403560	1.481158	0.834337	2076.285000
12.381939	1.477137	0.832969	2076.785000
12.362509	1.472059	0.831806	2077.285000
12.342938	1.466430	0.830498	2077.785000
12.324955	1.460749	0.829068	2078.285000
12.303277	1.454997	0.827683	2078.785000
12.283093	1.448750	0.826229	2079.285000
12.264576	1.441698	0.824803	2079.785000
12.249292	1.433970	0.823471	2080.285000
12.224186	1.425884	0.822211	2080.785000
12.208254	1.417172	0.820644	2081.286000
12.189725	1.408524	0.818912	2081.785000
12.171700	1.399791	0.817408	2082.285000
12.146140	1.390503	0.815879	2082.785000
12.124338	1.380562	0.814372	2083.285000
12.106323	1.369892	0.813030	2083.785000
12.088125	1.358682	0.811728	2084.286000
12.071083	1.347251	0.810442	2084.785000
12.055047	1.335458	0.809164	2085.285000
12.034621	1.322833	0.807772	2085.785000
12.017725	1.309827	0.806320	2086.285000
11.996393	1.296455	0.804872	2086.786000
11.981459	1.282434	0.803491	2087.285000
11.957608	1.268056	0.802141	2087.786000
11.943112	1.252982	0.800846	2088.285000
11.925737	1.237453	0.799454	2088.785000
11.906617	1.221530	0.798133	2089.285000
11.883871	1.205442	0.796986	2089.785000
11.867736	1.188395	0.795794	2090.285000
11.837043	1.170834	0.794445	2090.785000
11.814654	1.152275	0.793178	2091.286000
11.793310	1.132670	0.791791	2091.785000
11.775884	1.111806	0.790424	2092.285000
11.760612	1.089961	0.789052	2092.785000
11.740271	1.067220	0.787911	2093.285000
11.715539	1.043718	0.786810	2093.785000
11.693698	1.019429	0.785675	2094.286000
11.675422	0.994254	0.784492	2094.785000
11.654806	0.967627	0.783361	2095.285000
11.638421	0.940081	0.781969	2095.785000
11.621011	0.911859	0.780628	2096.285000
11.603658	0.883457	0.779394	2096.785000
11.580369	0.854781	0.778318	2097.285000
11.570542	0.825784	0.777274	2097.785000
11.546937	0.796311	0.776262	2098.285000
11.526146	0.766002	0.775271	2098.786000
11.508173	0.735245	0.774162	2099.285000
11.491313	0.703656	0.773223	2099.786000
11.468282	0.671950	0.772334	2100.285000
11.453579	0.640292	0.771664	2100.785000
11.435804	0.608694	0.770819	2101.285000
11.411465	0.577472	0.770011	2101.785000
11.398796	0.546268	0.769404	2102.286000
11.375608	0.515252	0.768818	2102.785000
11.357044	0.484502	0.768299	2103.285000
11.337433	0.454480	0.767696	2103.785000
11.318334	0.425445	0.767190	2104.286000
11.301100	0.397892	0.766715	2104.785000
11.282394	0.371388	0.766346	2105.285000
11.263971	0.346171	0.766157	2105.785000
11.245914	0.322509	0.765936	2106.285000
11.220743	0.300391	0.765805	2106.785000
11.206140	0.279917	0.765873	2107.285000
11.181775	0.261261	0.766088	2107.785000
11.161569	0.244476	0.766263	2108.285000
11.144506	0.229145	0.766380	2108.786000
11.131091	0.215376	0.766417	2109.285000
11.114651	0.203556	0.766474	2109.786000
11.097942	0.194000	0.766516	2110.285000
11.071430	0.186587	0.766538	2110.785000
11.043789	0.180990	0.766633	2111.285000
11.031504	0.177520	0.766614	2111.786000
11.013422	0.176076	0.766549	2112.286000
10.996942	0.177139	0.766317	2112.785000
10.978245	0.181040	0.765992	2113.285000
10.957535	0.187390	0.765819	2113.785000
10.934930	0.195541	0.765764	2114.285000
10.910462	0.205917	0.765460	2114.785000
10.896041	0.218442	0.765092	2115.285000
10.873966	0.232385	0.764822	2115.785000
10.852322	0.247157	0.764347	2116.285000
10.834577	0.262795	0.763727	2116.785000
10.824780	0.279191	0.762838	2117.285000
10.809290	0.295740	0.761699	2117.786000
10.781005	0.311763	0.760369	2118.285000
10.767342	0.327634	0.759155	2118.785000
10.741821	0.343764	0.757845	2119.285000
10.720357	0.360626	0.756465	2119.786000
10.701293	0.378441	0.754923	2120.285000
10.686960	0.396417	0.753256	2120.785000
10.672593	0.414055	0.751615	2121.285000
10.648154	0.432217	0.749868	2121.785000
10.626735	0.450919	0.747924	2122.285000
10.615696	0.469959	0.746005	2122.785000
10.593676	0.488458	0.744209	2123.286000
10.570100	0.506783	0.742391	2123.785000
10.553307	0.525257	0.740652	2124.286000
10.534683	0.543933	0.738897	2124.785000
10.513500	0.562263	0.736873	2125.286000
10.497021	0.580057	0.734727	2125.785000
10.481625	0.597838	0.732804	2126.285000
10.457809	0.615438	0.730855	2126.785000
10.434499	0.632644	0.728929	2127.286000
10.415192	0.649635	0.727071	2127.785000
10.399042	0.666236	0.725165	2128.285000
10.378150	0.683019	0.723194	2128.785000
10.360131	0.700023	0.721143	2129.285000
10.341546	0.716872	0.719334	2129.786000
10.318859	0.733410	0.717359	2130.285000
10.298448	0.749489	0.715338	2130.785000
10.279209	0.765369	0.713301	2131.285000
10.261456	0.781270	0.711251	2131.785000
10.241322	0.797355	0.709177	2132.285000
10.219361	0.813152	0.707378	2132.785000
10.194856	0.828719	0.705629	2133.285000
10.178969	0.844140	0.703943	2133.785000
10.156616	0.859421	0.702152	2134.285000
10.137191	0.874476	0.700303	2134.785000
10.123464	0.888869	0.698252	2135.285000
10.100674	0.902843	0.696249	2135.785000
10.081890	0.916322	0.694329	2136.286000
10.064847	0.929195	0.692422	2136.785000
10.043741	0.941519	0.690682	2137.285000
10.023952	0.952932	0.689159	2137.785000
10.004234	0.963335	0.687598	2138.285000
9.982010	0.972930	0.685960	2138.785000
9.963690	0.981824	0.684370	2139.285000
9.943010	0.990273	0.682741	2139.786000
9.930916	0.998478	0.681216	2140.285000
9.913889	1.005627	0.679520	2140.785000
9.893289	1.011528	0.677707	2141.285000
9.870390	1.016748	0.675945	2141.786000
9.846637	1.021204	0.674394	2142.285000
9.828940	1.025008	0.672781	2142.785000
9.806629	1.028436	0.671241	2143.285000
9.789418	1.031177	0.669757	2143.785000
9.768387	1.032913	0.668101	2144.285000
9.746969	1.033914	0.666333	2144.785000
9.728681	1.033801	0.664621	2145.286000
9.709536	1.032734	0.663022	2145.785000
9.685202	1.030963	0.661705	2146.285000
9.668295	1.028078	0.660313	2146.785000
9.644153	1.024417	0.658875	2147.285000
9.628144	1.019959	0.657319	2147.786000
9.608763	1.014842	0.655814	2148.285000
9.585108	1.008639	0.654361	2148.785000
9.560754	1.001810	0.652949	2149.285000
9.544615	0.994015	0.651381	2149.785000
9.523501	0.984906	0.649770	2150.285000
9.504861	0.974688	0.648173	2150.785000
9.488144	0.963368	0.646643	2151.285000
9.467978	0.950998	0.645082	2151.785000
9.452951	0.937776	0.643570	2152.285000
9.428046	0.924039	0.642352	2152.786000
9.407894	0.909407	0.641094	2153.285000
9.387607	0.893668	0.639843	2153.785000
9.366608	0.876697	0.638621	2154.286000
9.346585	0.858277	0.637345	2154.785000
9.328025	0.838704	0.636138	2155.285000
9.308359	0.817724	0.634794	2155.785000
9.290172	0.795960	0.633576	2156.286000
9.270170	0.773172	0.632479	2156.785000
9.248267	0.749366	0.631235	2157.285000
9.229619	0.724664	0.629925	2157.786000
9.210471	0.698721	0.628644	2158.285000
9.191175	0.671883	0.627489	2158.785000
9.170688	0.644208	0.626345	2159.285000
9.151685	0.615739	0.625164	2159.785000
9.133933	0.586664	0.623977	2160.285000
9.115655	0.556869	0.623050	2160.786000
9.095987	0.526618	0.622123	2161.285000
9.077261	0.496176	0.621301	2161.785000
9.057690	0.466125	0.620616	2162.285000
9.040411	0.436774	0.619916	2162.785000
9.021743	0.408228	0.619251	2163.285000
9.001491	0.380877	0.618710	2163.785000
8.981290	0.354782	0.618369	2164.285000
8.961840	0.329971	0.618141	2164.785000
8.941821	0.306621	0.617828	2165.286000
8.924349	0.285057	0.617633	2165.785000
8.906010	0.265530	0.617439	2166.286000
8.885814	0.248155	0.617329	2166.785000
8.868250	0.233257	0.617073	2167.285000
8.849493	0.221158	0.616740	2167.785000
8.829244	0.211689	0.616496	2168.285000
8.810285	0.205171	0.616192	2168.785000
8.788128	0.201124	0.615884	2169.285000
8.767703	0.199733	0.615569	2169.785000
8.746924	0.201165	0.615218	2170.285000
8.727875	0.205371	0.614767	2170.785000
8.707535	0.212301	0.614331	2171.285000
8.686249	0.221555	0.613916	2171.785000
8.663681	0.232631	0.613323	2172.285000
8.642792	0.245147	0.612571	2172.785000
8.622819	0.258438	0.611627	2173.285000
8.602289	0.272734	0.610420	2173.786000
8.581916	0.288029	0.609036	2174.285000
8.561169	0.304095	0.607798	2174.785000
8.542147	0.320781	0.606283	2175.286000
8.521346	0.337697	0.604559	2175.785000
8.503924	0.354690	0.602665	2176.286000
8.482075	0.371996	0.600655	2176.785000
8.462009	0.389520	0.598837	2177.285000
8.442051	0.406971	0.596960	2177.785000
8.421766	0.424582	0.595075	2178.285000
8.402733	0.442573	0.593273	2178.785000
8.382381	0.460462	0.591368	2179.285000
8.363254	0.477703	0.589515	2179.785000
8.344092	0.494631	0.587504	2180.285000
8.327486	0.511296	0.585349	2180.786000
8.306756	0.527440	0.583231	2181.285000
8.284906	0.543265	0.581252	2181.785000
8.266278	0.558472	0.579319	2182.285000
8.249487	0.573289	0.577622	2182.785000
8.230594	0.587577	0.575916	2183.285000
8.212756	0.601757	0.573966	2183.785000
8.191366	0.615550	0.571964	2184.285000
8.170817	0.628669	0.570113	2184.785000
8.150824	0.641444	0.568396	2185.285000
8.132361	0.653783	0.566640	2185.785000
8.113351	0.665494	0.564810	2186.285000
8.093390	0.676380	0.563178	2186.785000
8.075238	0.686560	0.561544	2187.285000
8.056005	0.695744	0.559855	2187.785000
8.037394	0.703845	0.558066	2188.285000
8.017986	0.710691	0.556283	2188.785000
7.996589	0.716398	0.554462	2189.285000
7.975107	0.721097	0.552818	2189.785000
7.957013	0.724805	0.551327	2190.285000
7.937259	0.727332	0.549824	2190.785000
7.920041	0.728433	0.548465	2191.285000
7.903448	0.728226	0.546937	2191.785000
7.883610	0.726841	0.545301	2192.285000
7.862551	0.724175	0.543706	2192.785000
7.847224	0.719991	0.542260	2193.285000
7.828234	0.714516	0.540933	2193.785000
7.809317	0.707490	0.539650	2194.285000
7.786504	0.698942	0.538394	2194.785000
7.766776	0.689055	0.536998	2195.285000
7.747784	0.677529	0.535630	2195.785000
7.726852	0.664146	0.534207	2196.285000
7.706808	0.648821	0.532801	2196.785000
7.688508	0.632007	0.531408	2197.286000
7.673735	0.613765	0.530073	2197.785000
7.653900	0.594230	0.528765	2198.285000
7.633522	0.573400	0.527606	2198.785000
7.614800	0.551342	0.526425	2199.285000
7.595819	0.528334	0.525196	2199.785000
7.576596	0.504130	0.524097	2200.285000
7.557651	0.478787	0.523183	2200.785000
7.538864	0.453235	0.522446	2201.285000
7.520140	0.427420	0.521901	2201.786000
7.501080	0.401645	0.521186	2202.285000
7.480928	0.376460	0.520507	2202.785000
7.461847	0.352195	0.519750	2203.285000
7.444585	0.329111	0.519245	2203.786000
7.424576	0.307618	0.518817	2204.286000
7.406723	0.288190	0.518381	2204.785000
7.386014	0.270866	0.517990	2205.285000
7.366907	0.255738	0.517543	2205.785000
7.347052	0.243100	0.517045	2206.285000
7.328970	0.233245	0.516560	2206.785000
7.310278	0.226512	0.516065	2207.285000
7.292094	0.222655	0.515267	2207.785000
7.273550	0.221744	0.514503	2208.286000
7.255785	0.223651	0.513944	2208.785000
7.239361	0.228078	0.513243	2209.285000
7.221423	0.234600	0.512510	2209.785000
7.202567	0.242898	0.511891	2210.285000
7.181021	0.252459	0.511063	2210.786000
7.164457	0.263214	0.510043	2211.285000
7.145590	0.274705	0.508796	2211.785000
7.123985	0.286954	0.507544	2212.285000
7.105855	0.300234	0.506248	2212.785000
7.084040	0.314126	0.504662	2213.285000
7.064661	0.328672	0.503063	2213.786000
7.046640	0.343440	0.501525	2214.285000
7.027234	0.358659	0.499789	2214.785000
7.007330	0.373800	0.497981	2215.285000
6.989975	0.388706	0.496116	2215.785000
6.970845	0.403720	0.494324	2216.286000
6.949896	0.418257	0.492587	2216.785000
6.928957	0.431957	0.490752	2217.285000
6.911220	0.445065	0.489024	2217.785000
6.892381	0.457799	0.487142	2218.285000
6.871349	0.470127	0.485274	2218.785000
6.858666	0.482297	0.483364	2219.285000
6.842722	0.493797	0.481482	2219.785000
6.819559	0.503895	0.479749	2220.285000
6.796685	0.513310	0.477949	2220.786000
6.777080	0.522136	0.476227	2221.285000
6.765610	0.529671	0.474633	2221.785000
6.743859	0.535822	0.473161	2222.285000
6.727193	0.540640	0.471606	2222.785000
6.709749	0.544303	0.469987	2223.285000
6.688298	0.546764	0.468401	2223.785000
6.671399	0.547353	0.466906	2224.285000
6.648915	0.546090	0.465519	2224.785000
6.633899	0.542861	0.464185	2225.285000
6.618311	0.538055	0.462826	2225.785000
6.599161	0.531661	0.461398	2226.286000
6.581619	0.523568	0.460029	2226.785000
6.563541	0.513913	0.458793	2227.285000
6.549005	0.502529	0.457539	2227.785000
6.530408	0.489593	0.456569	2228.285000
6.514616	0.475048	0.455397	2228.785000
6.492347	0.459076	0.454135	2229.285000
6.464868	0.441688	0.453005	2229.785000
6.447831	0.422841	0.452145	2230.286000
6.430375	0.402523	0.451239	2230.785000
6.415608	0.381592	0.450325	2231.285000
6.396533	0.361095	0.449500	2231.785000
6.373558	0.341345	0.448834	2232.285000
6.352476	0.322114	0.448192	2232.785000
6.334774	0.303964	0.447432	2233.285000
6.316736	0.287188	0.446559	2233.785000
6.305620	0.272658	0.445682	2234.285000
6.286323	0.260591	0.444940	2234.786000
6.269791	0.250894	0.444385	2235.285000
6.250751	0.244230	0.444026	2235.785000
6.229554	0.240592	0.443679	2236.286000
6.207156	0.239855	0.443293	2236.785000
6.185505	0.241432	0.442623	2237.285000
6.166472	0.245490	0.441628	2237.785000
6.149593	0.251783	0.440476	2238.286000
6.136230	0.260012	0.439303	2238.785000
6.114461	0.269652	0.438031	2239.286000
6.092500	0.280624	0.436665	2239.785000
6.081384	0.292359	0.435203	2240.286000
6.066821	0.304716	0.433778	2240.785000
6.046446	0.317119	0.432297	2241.285000
6.023911	0.329437	0.430854	2241.786000
6.002202	0.341524	0.429270	2242.285000
5.988930	0.353620	0.427579	2242.785000
5.962551	0.365770	0.425847	2243.285000
5.942422	0.377535	0.424210	2243.785000
5.927703	0.388623	0.422449	2244.285000
5.910134	0.398997	0.420695	2244.785000
5.888275	0.408571	0.419121	2245.285000
5.867175	0.417168	0.417650	2245.785000
5.845511	0.424724	0.415992	2246.285000
5.828705	0.431132	0.414201	2246.785000
5.809852	0.435800	0.412403	2247.285000
5.790944	0.439093	0.410649	2247.785000
5.774292	0.440802	0.408825	2248.285000
5.753634	0.440783	0.407069	2248.785000
5.736827	0.438921	0.405498	2249.286000
5.719567	0.435051	0.404241	2249.785000
5.700522	0.428561	0.402970	2250.285000
5.676852	0.419826	0.401745	2250.785000
5.657327	0.409272	0.400441	2251.285000
5.637826	0.396848	0.399136	2251.786000
5.623450	0.382944	0.397955	2252.285000
5.610244	0.368085	0.396932	2252.785000
5.591920	0.352914	0.396073	2253.285000
5.572430	0.337763	0.395418	2253.785000
5.551894	0.322736	0.394755	2254.285000
5.533205	0.307855	0.394019	2254.785000
5.512323	0.294370	0.393452	2255.286000
5.494634	0.282737	0.392784	2255.786000
5.478180	0.273149	0.391941	2256.286000
5.459194	0.265687	0.391209	2256.785000
5.437278	0.260765	0.390243	2257.285000
5.407403	0.258918	0.389384	2257.785000
5.384139	0.259971	0.388523	2258.285000
5.363519	0.263658	0.387510	2258.785000
5.345172	0.269467	0.386383	2259.285000
5.332039	0.277549	0.385295	2259.785000
5.313874	0.287097	0.384006	2260.286000
5.300372	0.297559	0.382388	2260.785000
5.277323	0.308051	0.380744	2261.285000
5.256234	0.318473	0.379137	2261.786000
5.237236	0.328993	0.377621	2262.285000
5.217732	0.339443	0.376078	2262.786000
5.197324	0.349348	0.374364	2263.285000
5.172824	0.358802	0.372715	2263.785000
5.154856	0.367037	0.371019	2264.285000
5.136732	0.373953	0.369217	2264.786000
5.117393	0.379288	0.367554	2265.285000
5.099709	0.382714	0.366025	2265.786000
5.081788	0.383746	0.364574	2266.285000
5.058342	0.382643	0.363013	2266.785000
5.041114	0.379765	0.361339	2267.285000
5.021984	0.374921	0.359714	2267.785000
5.002321	0.368063	0.358390	2268.286000
4.983585	0.359614	0.357136	2268.785000
4.964028	0.349866	0.356037	2269.285000
4.943603	0.339021	0.354992	2269.785000
4.924274	0.327653	0.354112	2270.286000
4.907370	0.316159	0.353152	2270.785000
4.885018	0.305292	0.352240	2271.285000
4.864481	0.295913	0.351255	2271.786000
4.847293	0.288260	0.350361	2272.285000
4.828045	0.283018	0.349344	2272.786000
4.800718	0.279779	0.348240	2273.285000
4.778028	0.278921	0.347059	2273.786000
4.757347	0.280517	0.345869	2274.285000
4.740187	0.284329	0.344666	2274.785000
4.721231	0.290244	0.343477	2275.285000
4.700407	0.297780	0.342389	2275.786000
4.679246	0.306336	0.341095	2276.285000
4.660266	0.315311	0.339743	2276.785000
4.641718	0.324198	0.338181	2277.285000
4.623003	0.332744	0.336688	2277.785000
4.604067	0.340137	0.335080	2278.285000
4.583193	0.346026	0.333491	2278.785000
4.564458	0.350396	0.331842	2279.285000
4.547391	0.352880	0.330140	2279.785000
4.527427	0.352954	0.328395	2280.286000
4.507422	0.351152	0.326870	2280.785000
4.486762	0.347782	0.325306	2281.286000
4.468015	0.342949	0.323815	2281.785000
4.448440	0.336586	0.322487	2282.285000
4.430271	0.328873	0.321210	2282.785000
4.412484	0.320573	0.319899	2283.285000
4.392113	0.312402	0.318874	2283.785000
4.369704	0.305383	0.317944	2284.285000
4.349488	0.299837	0.317154	2284.786000
4.329107	0.296127	0.316278	2285.285000
4.309608	0.294563	0.315257	2285.786000
4.289821	0.294997	0.314128	2286.285000
4.268609	0.297267	0.312914	2286.785000
4.247852	0.301362	0.311594	2287.286000
4.228321	0.306713	0.310319	2287.785000
4.210019	0.313105	0.308943	2288.285000
4.190406	0.319877	0.307447	2288.785000
4.170690	0.326202	0.306048	2289.285000
4.150788	0.331690	0.304640	2289.785000
4.132302	0.336301	0.303340	2290.286000
4.112080	0.339514	0.301786	2290.786000
4.091161	0.340792	0.300362	2291.285000
4.069475	0.340266	0.298890	2291.785000
4.050746	0.337843	0.297473	2292.285000
4.033439	0.333798	0.296016	2292.785000
4.014343	0.328694	0.294459	2293.285000
3.994897	0.323326	0.292906	2293.785000
3.974691	0.318014	0.291432	2294.285000
3.954390	0.313389	0.290201	2294.785000
3.934697	0.309765	0.289146	2295.285000
3.913059	0.307783	0.288250	2295.786000
3.892427	0.307571	0.287302	2296.285000
3.872723	0.309275	0.286232	2296.785000
3.853019	0.312833	0.284994	2297.286000
3.832539	0.317265	0.283557	2297.785000
3.812230	0.322224	0.282078	2298.285000
3.792959	0.327213	0.280609	2298.785000
3.771967	0.331666	0.279066	2299.285000
3.752173	0.335162	0.277554	2299.785000
3.731727	0.336899	0.275980	2300.285000
3.712169	0.336691	0.274448	2300.785000
3.691717	0.334934	0.272903	2301.286000
3.671894	0.331856	0.271572	2301.785000
3.652260	0.327902	0.270312	2302.285000
3.632783	0.324158	0.269026	2302.785000
3.611440	0.321105	0.267873	2303.285000
3.588267	0.319055	0.266641	2303.785000
3.567618	0.318600	0.265360	2304.285000
3.548115	0.319869	0.264188	2304.785000
3.529482	0.322567	0.263003	2305.285000
3.507182	0.325829	0.261687	2305.786000
3.486561	0.329407	0.260240	2306.285000
3.466928	0.333217	0.258701	2306.785000
3.449508	0.336076	0.257160	2307.286000
3.428681	0.337873	0.255612	2307.785000
3.406840	0.338668	0.254207	2308.285000
3.384858	0.338233	0.252875	2308.785000
3.366010	0.336667	0.251669	2309.286000
3.346762	0.334468	0.250507	2309.785000
3.325788	0.332536	0.249134	2310.285000
3.305213	0.331206	0.247874	2310.785000
3.284607	0.331139	0.246642	2311.286000
3.265463	0.332310	0.245165	2311.786000
3.246599	0.334214	0.243684	2312.285000
3.227615	0.336974	0.242267	2312.785000
3.208688	0.339766	0.240916	2313.285000
3.188627	0.342014	0.239547	2313.785000
3.169523	0.343328	0.238196	2314.285000
3.149823	0.343743	0.236679	2314.785000
3.129833	0.342968	0.235215	2315.285000
3.110980	0.341748	0.233819	2315.786000
3.088954	0.340608	0.232533	2316.285000
3.072260	0.339703	0.231175	2316.785000
3.050530	0.339468	0.229880	2317.285000
3.028821	0.340166	0.228739	2317.785000
3.008104	0.341609	0.227376	2318.285000
2.986711	0.343530	0.226064	2318.785000
2.967905	0.345690	0.224623	2319.285000
2.949995	0.347572	0.223115	2319.785000
2.931678	0.348609	0.221661	2320.285000
2.912443	0.348664	0.220327	2320.785000
2.894303	0.348248	0.219193	2321.286000
2.873591	0.347872	0.217973	2321.785000
2.854125	0.347847	0.216846	2322.286000
2.835884	0.348509	0.215548	2322.786000
2.818268	0.349677	0.214282	2323.285000
2.800064	0.351435	0.213119	2323.785000
2.781855	0.353425	0.212019	2324.285000
2.762842	0.355380	0.210782	2324.786000
2.744614	0.356390	0.209445	2325.285000
2.725622	0.356429	0.207998	2325.785000
2.705819	0.356227	0.206557	2326.285000
2.683130	0.356003	0.205180	2326.785000
2.664705	0.356237	0.203775	2327.285000
2.647018	0.357236	0.202477	2327.785000
2.626549	0.358742	0.201268	2328.285000
2.607755	0.360377	0.199983	2328.785000
2.588199	0.361763	0.198679	2329.285000
2.569898	0.362602	0.197344	2329.785000
2.552312	0.362920	0.196146	2330.285000
2.534868	0.363219	0.195004	2330.785000
2.515848	0.363704	0.193693	2331.286000
2.496665	0.364412	0.192496	2331.785000
2.478174	0.365386	0.191311	2332.285000
2.458273	0.366324	0.190113	2332.786000
2.437172	0.367260	0.188865	2333.285000
2.416819	0.368192	0.187693	2333.786000
2.398039	0.368979	0.186575	2334.285000
2.380118	0.369779	0.185157	2334.785000
2.361153	0.370582	0.183625	2335.285000
2.341543	0.371575	0.182107	2335.785000
2.321349	0.372782	0.180769	2336.285000
2.302484	0.373969	0.179580	2336.786000
2.283956	0.375085	0.178342	2337.285000
2.265820	0.375957	0.177028	2337.785000
2.247096	0.376622	0.175729	2338.285000
2.228144	0.377559	0.174308	2338.785000
2.208979	0.378483	0.172935	2339.285000
2.190139	0.379399	0.171684	2339.785000
2.172922	0.380289	0.170333	2340.285000
2.154184	0.381233	0.169043	2340.785000
2.134488	0.382157	0.167811	2341.285000
2.117056	0.382866	0.166662	2341.785000
2.097806	0.383591	0.165423	2342.285000
2.078420	0.384454	0.164233	2342.786000
2.058950	0.385292	0.163007	2343.285000
2.038072	0.386318	0.161705	2343.786000
2.021053	0.387399	0.160312	2344.285000
2.003971	0.388443	0.159097	2344.785000
1.987864	0.389304	0.157815	2345.285000
1.971951	0.390202	0.156527	2345.785000
1.952832	0.391183	0.155221	2346.285000
1.934559	0.392275	0.153945	2346.786000
1.910232	0.393269	0.152790	2347.285000
1.893409	0.394516	0.151688	2347.786000
1.875482	0.395437	0.150597	2348.286000
1.861346	0.396281	0.149330	2348.785000
1.842484	0.397225	0.147964	2349.285000
1.826839	0.398313	0.146631	2349.785000
1.804398	0.399647	0.145347	2350.285000
1.786386	0.400641	0.144023	2350.785000
1.771936	0.401323	0.142772	2351.285000
1.752591	0.402129	0.141463	2351.785000
1.732483	0.403103	0.140109	2352.285000
1.712593	0.403854	0.138753	2352.785000
1.694266	0.404646	0.137506	2353.286000
1.678143	0.405170	0.136208	2353.785000
1.657578	0.405762	0.134954	2354.285000
1.636474	0.406655	0.133850	2354.785000
1.618812	0.407756	0.132750	2355.285000
1.602185	0.408904	0.131515	2355.786000
1.584174	0.410073	0.130378	2356.285000
1.567586	0.411032	0.129374	2356.786000
1.549920	0.412059	0.128296	2357.285000
1.525559	0.413026	0.127129	2357.786000
1.506970	0.413898	0.125753	2358.285000
1.485891	0.414872	0.124400	2358.785000
1.466243	0.416110	0.123013	2359.285000
1.446216	0.417283	0.121669	2359.785000
1.429427	0.418338	0.120193	2360.285000
1.413230	0.419416	0.118674	2360.785000
1.399719	0.420668	0.117247	2361.285000
1.374814	0.421896	0.115856	2361.785000
1.353195	0.422963	0.114760	2362.285000
1.335757	0.424051	0.113687	2362.785000
1.322666	0.424986	0.112579	2363.286000
1.304597	0.426038	0.111393	2363.785000
1.287439	0.427098	0.110157	2364.285000
1.271181	0.427970	0.108793	2364.785000
1.259249	0.428859	0.107444	2365.285000
1.235681	0.429859	0.106049	2365.785000
1.216064	0.430896	0.104870	2366.285000
1.200491	0.432051	0.103720	2366.785000
1.171790	0.433315	0.102697	2367.285000
1.150610	0.434439	0.101646	2367.786000
1.130467	0.435538	0.100453	2368.286000
1.112930	0.436790	0.099289	2368.785000
1.097590	0.437763	0.098028	2369.285000
1.082009	0.438374	0.096783	2369.785000
1.064063	0.439041	0.095524	2370.285000
1.049350	0.440105	0.094067	2370.785000
1.031442	0.441503	0.092581	2371.285000
1.004269	0.442911	0.091415	2371.785000
0.987009	0.444033	0.090237	2372.285000
0.963019	0.444836	0.089018	2372.785000
0.946729	0.445815	0.087729	2373.285000
0.929925	0.447105	0.086566	2373.786000
0.908138	0.448608	0.085298	2374.285000
0.890500	0.450099	0.083819	2374.785000
0.874156	0.451335	0.082477	2375.285000
0.860287	0.452303	0.081299	2375.785000
0.834232	0.453602	0.080051	2376.285000
0.816943	0.454950	0.078750	2376.785000
0.798590	0.456251	0.077468	2377.285000
0.785638	0.457393	0.076107	2377.785000
0.768844	0.458265	0.074854	2378.285000
0.746269	0.459112	0.073644	2378.785000
0.724581	0.460343	0.072532	2379.285000
0.712908	0.461498	0.071428	2379.785000
0.693700	0.462524	0.070273	2380.285000
0.670858	0.463756	0.069094	2380.785000
0.655625	0.465004	0.067835	2381.286000
0.637775	0.466253	0.066480	2381.785000
0.616431	0.467416	0.065060	2382.286000
0.592607	0.468410	0.063740	2382.785000
0.574260	0.469310	0.062500	2383.286000
0.558408	0.470146	0.061195	2383.785000
0.534006	0.471175	0.059928	2384.285000
0.514284	0.472383	0.058619	2384.785000
0.495255	0.473382	0.057302	2385.285000
0.478412	0.474476	0.055950	2385.785000
0.464224	0.475710	0.054741	2386.285000
0.442889	0.477028	0.053625	2386.785000
0.427957	0.478355	0.052624	2387.285000
0.413480	0.479416	0.051566	2387.785000
0.393790	0.480568	0.050362	2388.285000
0.374161	0.481477	0.049047	2388.786000
0.356463	0.482290	0.047830	2389.285000
0.338803	0.483055	0.046671	2389.785000
0.319813	0.483899	0.045338	2390.286000
0.303044	0.484980	0.044205	2390.785000
0.284164	0.485957	0.043160	2391.285000
0.263959	0.486975	0.041870	2391.785000
0.247144	0.488518	0.040773	2392.286000
0.230161	0.489956	0.039794	2392.785000
0.212205	0.491312	0.038691	2393.285000
0.189670	0.492610	0.037420	2393.785000
0.167682	0.493750	0.036188	2394.285000
0.147417	0.494607	0.034942	2394.785000
0.125672	0.495309	0.033857	2395.285000
0.103589	0.495974	0.032830	2395.785000
0.084717	0.496865	0.031716	2396.285000
0.083752	0.497767	0.030486	2396.785000
0.083954	0.498510	0.029456	2397.285000
0.083929	0.498828	0.028513	2397.785000
0.084249	0.499425	0.027483	2398.285000
0.084381	0.500256	0.026496	2398.786000
0.084586	0.501107	0.025717	2399.286000
0.084424	0.501576	0.025125	2399.785000
0.084484	0.502215	0.024747	2400.286000
0.084379	0.502791	0.024290	2400.785000
